rhoYe is density times electron fraction [g/cm^3], T is temperature [MeV], mu_e is electron chemical potential [MeV]
e-(+) cap is electron (positron) capture, e-(+) dec is electron (positron) decay
For each process, first column is neutrino production [neutrinos/baryon second] and second column is energy loss [MeV/baryon second].
rhoYe     T      mu_e    e- cap                   e+ dec                   e+ cap                   e- dec                   
1.00E+01  0.001  0.509   0.0000E+00  0.0000E+00   0.0000E+00  0.0000E+00   0.0000E+00  0.0000E+00   3.5076E-03  1.0794E-02   
1.00E+01  0.009  0.453   0.0000E+00  0.0000E+00   0.0000E+00  0.0000E+00   8.1252E-57  4.2768E-56   3.5076E-03  1.0794E-02   
1.00E+01  0.017  0.377   0.0000E+00  0.0000E+00   0.0000E+00  0.0000E+00   6.9162E-30  3.6417E-29   3.5076E-03  1.0794E-02   
1.00E+01  0.034  0.205   0.0000E+00  0.0000E+00   0.0000E+00  0.0000E+00   6.9642E-16  3.6690E-15   3.5076E-03  1.0794E-02   
1.00E+01  0.060  0.008   0.0000E+00  0.0000E+00   0.0000E+00  0.0000E+00   4.3130E-10  2.2737E-09   3.5076E-03  1.0794E-02   
1.00E+01  0.086  0.000   0.0000E+00  0.0000E+00   0.0000E+00  0.0000E+00   1.3230E-08  6.9775E-08   3.5085E-03  1.0797E-02   
1.00E+01  0.129  0.000   0.0000E+00  0.0000E+00   0.0000E+00  0.0000E+00   2.3390E-07  1.2354E-06   3.5283E-03  1.0867E-02   
1.00E+01  0.172  0.000   0.0000E+00  0.0000E+00   0.0000E+00  0.0000E+00   1.2277E-06  6.5148E-06   3.6057E-03  1.1142E-02   
1.00E+01  0.259  0.000   0.0000E+00  0.0000E+00   0.0000E+00  0.0000E+00   9.3051E-06  5.0470E-05   3.9660E-03  1.2419E-02   
1.00E+01  0.431  0.000   0.0000E+00  0.0000E+00   0.0000E+00  0.0000E+00   9.4189E-05  5.4561E-04   5.0119E-03  1.6113E-02   
1.00E+01  0.862  0.000   0.0000E+00  0.0000E+00   0.0000E+00  0.0000E+00   2.1969E-03  1.5756E-02   9.7654E-03  3.7372E-02   
1.00E+01  2.585  0.000   0.0000E+00  0.0000E+00   0.0000E+00  0.0000E+00   5.4310E-01  9.5024E+00   1.4049E-01  7.0658E-01   
1.00E+01  0.001  0.509   0.0000E+00  0.0000E+00   0.0000E+00  0.0000E+00   0.0000E+00  0.0000E+00   3.5076E-03  1.0794E-02   
1.00E+01  0.009  0.453   0.0000E+00  0.0000E+00   0.0000E+00  0.0000E+00   8.1252E-57  4.2768E-56   3.5076E-03  1.0794E-02   
1.00E+01  0.017  0.377   0.0000E+00  0.0000E+00   0.0000E+00  0.0000E+00   6.9162E-30  3.6417E-29   3.5076E-03  1.0794E-02   
1.00E+01  0.034  0.205   0.0000E+00  0.0000E+00   0.0000E+00  0.0000E+00   6.9642E-16  3.6690E-15   3.5076E-03  1.0794E-02   
1.00E+01  0.060  0.008   0.0000E+00  0.0000E+00   0.0000E+00  0.0000E+00   4.3130E-10  2.2737E-09   3.5076E-03  1.0794E-02   
1.00E+01  0.086  0.000   0.0000E+00  0.0000E+00   0.0000E+00  0.0000E+00   1.3230E-08  6.9775E-08   3.5085E-03  1.0797E-02   
1.00E+01  0.129  0.000   0.0000E+00  0.0000E+00   0.0000E+00  0.0000E+00   2.3390E-07  1.2354E-06   3.5283E-03  1.0867E-02   
1.00E+01  0.172  0.000   0.0000E+00  0.0000E+00   0.0000E+00  0.0000E+00   1.2277E-06  6.5148E-06   3.6057E-03  1.1142E-02   
1.00E+01  0.259  0.000   0.0000E+00  0.0000E+00   0.0000E+00  0.0000E+00   9.3051E-06  5.0470E-05   3.9660E-03  1.2419E-02   
1.00E+01  0.431  0.000   0.0000E+00  0.0000E+00   0.0000E+00  0.0000E+00   9.4189E-05  5.4561E-04   5.0119E-03  1.6113E-02   
1.00E+01  0.862  0.000   0.0000E+00  0.0000E+00   0.0000E+00  0.0000E+00   2.1969E-03  1.5756E-02   9.7654E-03  3.7372E-02   
1.00E+01  2.585  0.000   0.0000E+00  0.0000E+00   0.0000E+00  0.0000E+00   5.4310E-01  9.5024E+00   1.4049E-01  7.0658E-01   
1.00E+02  0.001  0.511   0.0000E+00  0.0000E+00   0.0000E+00  0.0000E+00   0.0000E+00  0.0000E+00   3.5076E-03  1.0794E-02   
1.00E+02  0.009  0.473   0.0000E+00  0.0000E+00   0.0000E+00  0.0000E+00   8.0898E-58  4.2582E-57   3.5076E-03  1.0794E-02   
1.00E+02  0.017  0.416   0.0000E+00  0.0000E+00   0.0000E+00  0.0000E+00   6.9077E-31  3.6372E-30   3.5076E-03  1.0794E-02   
1.00E+02  0.034  0.284   0.0000E+00  0.0000E+00   0.0000E+00  0.0000E+00   6.9614E-17  3.6675E-16   3.5076E-03  1.0794E-02   
1.00E+02  0.060  0.065   0.0000E+00  0.0000E+00   0.0000E+00  0.0000E+00   1.6658E-10  8.7817E-10   3.5076E-03  1.0794E-02   
1.00E+02  0.086  0.005   0.0000E+00  0.0000E+00   0.0000E+00  0.0000E+00   1.2586E-08  6.6379E-08   3.5085E-03  1.0797E-02   
1.00E+02  0.129  0.000   0.0000E+00  0.0000E+00   0.0000E+00  0.0000E+00   2.3313E-07  1.2313E-06   3.5283E-03  1.0867E-02   
1.00E+02  0.172  0.000   0.0000E+00  0.0000E+00   0.0000E+00  0.0000E+00   1.2268E-06  6.5101E-06   3.6057E-03  1.1142E-02   
1.00E+02  0.259  0.000   0.0000E+00  0.0000E+00   0.0000E+00  0.0000E+00   9.3040E-06  5.0464E-05   3.9660E-03  1.2419E-02   
1.00E+02  0.431  0.000   0.0000E+00  0.0000E+00   0.0000E+00  0.0000E+00   9.4187E-05  5.4560E-04   5.0119E-03  1.6113E-02   
1.00E+02  0.862  0.000   0.0000E+00  0.0000E+00   0.0000E+00  0.0000E+00   2.1969E-03  1.5756E-02   9.7654E-03  3.7372E-02   
1.00E+02  2.585  0.000   0.0000E+00  0.0000E+00   0.0000E+00  0.0000E+00   5.4310E-01  9.5024E+00   1.4049E-01  7.0658E-01   
1.00E+01  0.001  0.509   0.0000E+00  0.0000E+00   0.0000E+00  0.0000E+00   0.0000E+00  0.0000E+00   3.5076E-03  1.0794E-02   
1.00E+01  0.009  0.453   0.0000E+00  0.0000E+00   0.0000E+00  0.0000E+00   8.1252E-57  4.2768E-56   3.5076E-03  1.0794E-02   
1.00E+01  0.017  0.377   0.0000E+00  0.0000E+00   0.0000E+00  0.0000E+00   6.9162E-30  3.6417E-29   3.5076E-03  1.0794E-02   
1.00E+01  0.034  0.205   0.0000E+00  0.0000E+00   0.0000E+00  0.0000E+00   6.9642E-16  3.6690E-15   3.5076E-03  1.0794E-02   
1.00E+01  0.060  0.008   0.0000E+00  0.0000E+00   0.0000E+00  0.0000E+00   4.3130E-10  2.2737E-09   3.5076E-03  1.0794E-02   
1.00E+01  0.086  0.000   0.0000E+00  0.0000E+00   0.0000E+00  0.0000E+00   1.3230E-08  6.9775E-08   3.5085E-03  1.0797E-02   
1.00E+01  0.129  0.000   0.0000E+00  0.0000E+00   0.0000E+00  0.0000E+00   2.3390E-07  1.2354E-06   3.5283E-03  1.0867E-02   
1.00E+01  0.172  0.000   0.0000E+00  0.0000E+00   0.0000E+00  0.0000E+00   1.2277E-06  6.5148E-06   3.6057E-03  1.1142E-02   
1.00E+01  0.259  0.000   0.0000E+00  0.0000E+00   0.0000E+00  0.0000E+00   9.3051E-06  5.0470E-05   3.9660E-03  1.2419E-02   
1.00E+01  0.431  0.000   0.0000E+00  0.0000E+00   0.0000E+00  0.0000E+00   9.4189E-05  5.4561E-04   5.0119E-03  1.6113E-02   
1.00E+01  0.862  0.000   0.0000E+00  0.0000E+00   0.0000E+00  0.0000E+00   2.1969E-03  1.5756E-02   9.7654E-03  3.7372E-02   
1.00E+01  2.585  0.000   0.0000E+00  0.0000E+00   0.0000E+00  0.0000E+00   5.4310E-01  9.5024E+00   1.4049E-01  7.0658E-01   
1.00E+02  0.001  0.511   0.0000E+00  0.0000E+00   0.0000E+00  0.0000E+00   0.0000E+00  0.0000E+00   3.5076E-03  1.0794E-02   
1.00E+02  0.009  0.473   0.0000E+00  0.0000E+00   0.0000E+00  0.0000E+00   8.0898E-58  4.2582E-57   3.5076E-03  1.0794E-02   
1.00E+02  0.017  0.416   0.0000E+00  0.0000E+00   0.0000E+00  0.0000E+00   6.9077E-31  3.6372E-30   3.5076E-03  1.0794E-02   
1.00E+02  0.034  0.284   0.0000E+00  0.0000E+00   0.0000E+00  0.0000E+00   6.9614E-17  3.6675E-16   3.5076E-03  1.0794E-02   
1.00E+02  0.060  0.065   0.0000E+00  0.0000E+00   0.0000E+00  0.0000E+00   1.6658E-10  8.7817E-10   3.5076E-03  1.0794E-02   
1.00E+02  0.086  0.005   0.0000E+00  0.0000E+00   0.0000E+00  0.0000E+00   1.2586E-08  6.6379E-08   3.5085E-03  1.0797E-02   
1.00E+02  0.129  0.000   0.0000E+00  0.0000E+00   0.0000E+00  0.0000E+00   2.3313E-07  1.2313E-06   3.5283E-03  1.0867E-02   
1.00E+02  0.172  0.000   0.0000E+00  0.0000E+00   0.0000E+00  0.0000E+00   1.2268E-06  6.5101E-06   3.6057E-03  1.1142E-02   
1.00E+02  0.259  0.000   0.0000E+00  0.0000E+00   0.0000E+00  0.0000E+00   9.3040E-06  5.0464E-05   3.9660E-03  1.2419E-02   
1.00E+02  0.431  0.000   0.0000E+00  0.0000E+00   0.0000E+00  0.0000E+00   9.4187E-05  5.4560E-04   5.0119E-03  1.6113E-02   
1.00E+02  0.862  0.000   0.0000E+00  0.0000E+00   0.0000E+00  0.0000E+00   2.1969E-03  1.5756E-02   9.7654E-03  3.7372E-02   
1.00E+02  2.585  0.000   0.0000E+00  0.0000E+00   0.0000E+00  0.0000E+00   5.4310E-01  9.5024E+00   1.4049E-01  7.0658E-01   
1.00E+03  0.001  0.513   0.0000E+00  0.0000E+00   0.0000E+00  0.0000E+00   0.0000E+00  0.0000E+00   3.5075E-03  1.0793E-02   
1.00E+03  0.009  0.493   0.0000E+00  0.0000E+00 1.00E+01  0.001  0.509   0.0000E+00  0.0000E+00   0.0000E+00  0.0000E+00   0.0000E+00  0.0000E+00   3.5076E-03  1.0794E-02   
1.00E+01  0.009  0.453   0.0000E+00  0.0000E+00   0.0000E+00  0.0000E+00   8.1252E-57  4.2768E-56   3.5076E-03  1.0794E-02   
1.00E+01  0.017  0.377   0.0000E+00  0.0000E+00   0.0000E+00  0.0000E+00   6.9162E-30  3.6417E-29   3.5076E-03  1.0794E-02   
1.00E+01  0.034  0.205   0.0000E+00  0.0000E+00   0.0000E+00  0.0000E+00   6.9642E-16  3.6690E-15   3.5076E-03  1.0794E-02   
1.00E+01  0.060  0.008   0.0000E+00  0.0000E+00   0.0000E+00  0.0000E+00   4.3130E-10  2.2737E-09   3.5076E-03  1.0794E-02   
1.00E+01  0.086  0.000   0.0000E+00  0.0000E+00   0.0000E+00  0.0000E+00   1.3230E-08  6.9775E-08   3.5085E-03  1.0797E-02   
1.00E+01  0.129  0.000   0.0000E+00  0.0000E+00   0.0000E+00  0.0000E+00   2.3390E-07  1.2354E-06   3.5283E-03  1.0867E-02   
1.00E+01  0.172  0.000   0.0000E+00  0.0000E+00   0.0000E+00  0.0000E+00   1.2277E-06  6.5148E-06   3.6057E-03  1.1142E-02   
1.00E+01  0.259  0.000   0.0000E+00  0.0000E+00   0.0000E+00  0.0000E+00   9.3051E-06  5.0470E-05   3.9660E-03  1.2419E-02   
1.00E+01  0.431  0.000   0.0000E+00  0.0000E+00   0.0000E+00  0.0000E+00   9.4189E-05  5.4561E-04   5.0119E-03  1.6113E-02   
1.00E+01  0.862  0.000   0.0000E+00  0.0000E+00   0.0000E+00  0.0000E+00   2.1969E-03  1.5756E-02   9.7654E-03  3.7372E-02   
1.00E+01  2.585  0.000   0.0000E+00  0.0000E+00   0.0000E+00  0.0000E+00   5.4310E-01  9.5024E+00   1.4049E-01  7.0658E-01   
1.00E+02  0.001  0.511   0.0000E+00  0.0000E+00   0.0000E+00  0.0000E+00   0.0000E+00  0.0000E+00   3.5076E-03  1.0794E-02   
1.00E+02  0.009  0.473   0.0000E+00  0.0000E+00   0.0000E+00  0.0000E+00   8.0898E-58  4.2582E-57   3.5076E-03  1.0794E-02   
1.00E+02  0.017  0.416   0.0000E+00  0.0000E+00   0.0000E+00  0.0000E+00   6.9077E-31  3.6372E-30   3.5076E-03  1.0794E-02   
1.00E+02  0.034  0.284   0.0000E+00  0.0000E+00   0.0000E+00  0.0000E+00   6.9614E-17  3.6675E-16   3.5076E-03  1.0794E-02   
1.00E+02  0.060  0.065   0.0000E+00  0.0000E+00   0.0000E+00  0.0000E+00   1.6658E-10  8.7817E-10   3.5076E-03  1.0794E-02   
1.00E+02  0.086  0.005   0.0000E+00  0.0000E+00   0.0000E+00  0.0000E+00   1.2586E-08  6.6379E-08   3.5085E-03  1.0797E-02   
1.00E+02  0.129  0.000   0.0000E+00  0.0000E+00   0.0000E+00  0.0000E+00   2.3313E-07  1.2313E-06   3.5283E-03  1.0867E-02   
1.00E+02  0.172  0.000   0.0000E+00  0.0000E+00   0.0000E+00  0.0000E+00   1.2268E-06  6.5101E-06   3.6057E-03  1.1142E-02   
1.00E+02  0.259  0.000   0.0000E+00  0.0000E+00   0.0000E+00  0.0000E+00   9.3040E-06  5.0464E-05   3.9660E-03  1.2419E-02   
1.00E+02  0.431  0.000   0.0000E+00  0.0000E+00   0.0000E+00  0.0000E+00   9.4187E-05  5.4560E-04   5.0119E-03  1.6113E-02   
1.00E+02  0.862  0.000   0.0000E+00  0.0000E+00   0.0000E+00  0.0000E+00   2.1969E-03  1.5756E-02   9.7654E-03  3.7372E-02   
1.00E+02  2.585  0.000   0.0000E+00  0.0000E+00   0.0000E+00  0.0000E+00   5.4310E-01  9.5024E+00   1.4049E-01  7.0658E-01   
1.00E+03  0.001  0.513   0.0000E+00  0.0000E+00   0.0000E+00  0.0000E+00   0.0000E+00  0.0000E+00   3.5075E-03  1.0793E-02   
1.00E+03  0.009  0.493   0.0000E+00  0.0000E+00 1.00E+01  0.001  0.509   0.0000E+00  0.0000E+00   0.0000E+00  0.0000E+00   0.0000E+00  0.0000E+00   3.5076E-03  1.0794E-02   
1.00E+03  0.009  0.493   0.0000E+00  0.0000E+00   0.0000E+00  0.0000E+00   7.7418E-59  4.0750E-58   3.5076E-03  1.0794E-02   
1.00E+03  0.017  0.456   0.0000E+00  0.0000E+00   0.0000E+00  0.0000E+00   6.8229E-32  3.5925E-31   3.5076E-03  1.0794E-02   
1.00E+03  0.034  0.364   0.0000E+00  0.0000E+00   0.0000E+00  0.0000E+00   6.9326E-18  3.6523E-17   3.5076E-03  1.0794E-02   
1.00E+03  0.060  0.197   0.0000E+00  0.0000E+00   0.0000E+00  0.0000E+00   1.8767E-11  9.8933E-11   3.5076E-03  1.0794E-02   
1.00E+03  0.086  0.046   0.0000E+00  0.0000E+00   0.0000E+00  0.0000E+00   7.8324E-09  4.1309E-08   3.5085E-03  1.0797E-02   
1.00E+03  0.129  0.005   0.0000E+00  0.0000E+00   0.0000E+00  0.0000E+00   2.2550E-07  1.1910E-06   3.5283E-03  1.0867E-02   
1.00E+03  0.172  0.001   0.0000E+00  0.0000E+00   0.0000E+00  0.0000E+00   1.2180E-06  6.4633E-06   3.6057E-03  1.1142E-02   
1.00E+03  0.259  0.000   0.0000E+00  0.0000E+00   0.0000E+00  0.0000E+00   9.2928E-06  5.0403E-05   3.9659E-03  1.2419E-02   
1.00E+03  0.431  0.000   0.0000E+00  0.0000E+00   0.0000E+00  0.0000E+00   9.4170E-05  5.4549E-04   5.0119E-03  1.6113E-02   
1.00E+03  0.862  0.000   0.0000E+00  0.0000E+00   0.0000E+00  0.0000E+00   2.1968E-03  1.5755E-02   9.7654E-03  3.7372E-02   
1.00E+03  2.585  0.000   0.0000E+00  0.0000E+00   0.0000E+00  0.0000E+00   5.4310E-01  9.5024E+00   1.4049E-01  7.0658E-01   
1.00E+04  0.001  0.523   0.0000E+00  0.0000E+00   0.0000E+00  0.0000E+00   0.0000E+00  0.0000E+00   3.5069E-03  1.0790E-02   
1.00E+04  0.009  0.516   0.0000E+00  0.0000E+00   0.0000E+00  0.0000E+00   5.6403E-60  2.9689E-59   3.5071E-03  1.0791E-02   
1.00E+04  0.017  0.498   0.0000E+00  0.0000E+00   0.0000E+00  0.0000E+00   6.0498E-33  3.1855E-32   3.5072E-03  1.0792E-02   
1.00E+04  0.034  0.444   0.0000E+00  0.0000E+00   0.0000E+00  0.0000E+00   6.6518E-19  3.5044E-18   3.5073E-03  1.0792E-02   
1.00E+04  0.060  0.337   0.0000E+00  0.0000E+00   0.0000E+00  0.0000E+00   1.8502E-12  9.7537E-12   3.5073E-03  1.0793E-02   
1.00E+04  0.086  0.209   0.0000E+00  0.0000E+00   0.0000E+00  0.0000E+00   1.1807E-09  6.2271E-09   3.5083E-03  1.0796E-02   
1.00E+04  0.129  0.047   0.0000E+00  0.0000E+00   0.0000E+00  0.0000E+00   1.6289E-07  8.6032E-07   3.5281E-03  1.0867E-02   
1.00E+04  0.172  0.014   0.0000E+00  0.0000E+00   0.0000E+00  0.0000E+00   1.1333E-06  6.0139E-06   3.6056E-03  1.1142E-02   
1.00E+04  0.259  0.004   0.0000E+00  0.0000E+00   0.0000E+00  0.0000E+00   9.1814E-06  4.9799E-05   3.9659E-03  1.2418E-02   
1.00E+04  0.431  0.001   0.0000E+00  0.0000E+00   0.0000E+00  0.0000E+00   9.3996E-05  5.4449E-04   5.0118E-03  1.6112E-02   
1.00E+04  0.862  0.000   0.0000E+00  0.0000E+00   0.0000E+00  0.0000E+00   2.1964E-03  1.5752E-02   9.7654E-03  3.7372E-02   
1.00E+04  2.585  0.000   0.0000E+00  0.0000E+00   0.0000E+00  0.0000E+00   5.4310E-01  9.5023E+00   1.4049E-01  7.0658E-01   
1.00E+05  0.001  0.565   0.0000E+00  0.0000E+00   0.0000E+00  0.0000E+00   0.0000E+00  0.0000E+00   3.5037E-03  1.0774E-02   
1.00E+05  0.009  0.563   0.0000E+00  0.0000E+00   0.0000E+00  0.0000E+00   2.4788E-62  1.3047E-61   3.5038E-03  1.0775E-02   
1.00E+05  0.017  0.558   0.0000E+00  0.0000E+00   0.0000E+00  0.0000E+00   1.8831E-34  9.9155E-34   3.5039E-03  1.0776E-02   
1.00E+05  0.034  0.537   0.0000E+00  0.0000E+00   0.0000E+00  0.0000E+00   4.4897E-20  2.3653E-19   3.5043E-03  1.0778E-02   
1.00E+05  0.060  0.485   0.0000E+00  0.0000E+00   0.0000E+00  0.0000E+00   1.5882E-13  8.3727E-13   3.5048E-03  1.0780E-02   
1.00E+05  0.086  0.413   0.0000E+00  0.0000E+00   0.0000E+00  0.0000E+00   1.0986E-10  5.7942E-10   3.5059E-03  1.0784E-02   
1.00E+05  0.129  0.265   0.0000E+00  0.0000E+00   0.0000E+00  0.0000E+00   3.0159E-08  1.5929E-07   3.5262E-03  1.0857E-02   
1.00E+05  0.172  0.128   0.0000E+00  0.0000E+00   0.0000E+00  0.0000E+00   5.8610E-07  3.1102E-06   3.6043E-03  1.1135E-02   
1.00E+05  0.259  0.035   0.0000E+00  0.0000E+00   0.0000E+00  0.0000E+00   8.1393E-06  4.4146E-05   3.9649E-03  1.2414E-02   
1.00E+05  0.431  0.009   0.0000E+00  0.0000E+00   0.0000E+00  0.0000E+00   9.2278E-05  5.3453E-04   5.0111E-03  1.6109E-02   
1.00E+05  0.862  0.002   0.0000E+00  0.0000E+00   0.0000E+00  0.0000E+00   2.1921E-03  1.5721E-02   9.7647E-03  3.7368E-02   
1.00E+05  2.585  0.000   0.0000E+00  0.0000E+00   0.0000E+00  0.0000E+00   5.4306E-01  9.5016E+00   1.4049E-01  7.0658E-01   
1.00E+06  0.001  0.726   0.0000E+00  0.0000E+00   0.0000E+00  0.0000E+00   0.0000E+00  0.0000E+00   3.4826E-03  1.0669E-02   
1.00E+06  0.009  0.725   0.0000E+00  0.0000E+00   0.0000E+00  0.0000E+00   1.6479E-70  8.6738E-70   3.4827E-03  1.0670E-02   
1.00E+06  0.017  0.724   0.0000E+00  0.0000E+00   0.0000E+00  0.0000E+00   1.2342E-38  6.4984E-38   3.4827E-03  1.0670E-02   
1.00E+06  0.034  0.718   0.0000E+00  0.0000E+00   0.0000E+00  0.0000E+00   2.3906E-22  1.2595E-21   3.4830E-03  1.0672E-02   
1.00E+06  0.060  0.700   0.0000E+00  0.0000E+00   0.0000E+00  0.0000E+00   4.4779E-15  2.3606E-14   3.4838E-03  1.0676E-02   
1.00E+06  0.086  0.672   0.0000E+00  0.0000E+00   0.0000E+00  0.0000E+00   5.4609E-12  2.8801E-11   3.4856E-03  1.0684E-02   
1.00E+06  0.129  0.604   0.0000E+00  0.0000E+00   0.0000E+00  0.0000E+00   2.2004E-09  1.1622E-08   3.5071E-03  1.0763E-02   
1.00E+06  0.172  0.512   0.0000E+00  0.0000E+00   0.0000E+00  0.0000E+00   6.3553E-08  3.3726E-07   3.5867E-03  1.1048E-02   
1.00E+06  0.259  0.299   0.0000E+00  0.0000E+00   0.0000E+00  0.0000E+00   2.9790E-06  1.6158E-05   3.9520E-03  1.2350E-02   
1.00E+06  0.431  0.091   0.0000E+00  0.0000E+00   0.0000E+00  0.0000E+00   7.6766E-05  4.4463E-04   5.0025E-03  1.6067E-02   
1.00E+06  0.862  0.020   0.0000E+00  0.0000E+00   0.0000E+00  0.0000E+00   2.1492E-03  1.5413E-02   9.7578E-03  3.7335E-02   
1.00E+06  2.585  0.002   0.0000E+00  0.0000E+00   0.0000E+00  0.0000E+00   5.4268E-01  9.4949E+00   1.4048E-01  7.0649E-01   
1.00E+07  0.001  1.223   0.0000E+00  0.0000E+00   0.0000E+00  0.0000E+00   0.0000E+00  0.0000E+00   3.3326E-03  9.9432E-03   
1.00E+07  0.009  1.222   0.0000E+00  0.0000E+00   0.0000E+00  0.0000E+00   1.4434E-95  7.5977E-95   3.3329E-03  9.9447E-03   
1.00E+07  0.017  1.222   0.0000E+00  0.0000E+00   0.0000E+00  0.0000E+00   3.5591E-51  1.8740E-50   3.3330E-03  9.9453E-03   
1.00E+07  0.034  1.219   0.0000E+00  0.0000E+00   0.0000E+00  0.0000E+00   1.1525E-28  6.0718E-28   3.3333E-03  9.9471E-03   
1.00E+07  0.060  1.212   0.0000E+00  0.0000E+00   0.0000E+00  0.0000E+00   9.2747E-19  4.8894E-18   3.3343E-03  9.9529E-03   
1.00E+07  0.086  1.200   0.0000E+00  0.0000E+00   0.0000E+00  0.0000E+00   1.1870E-14  6.2606E-14   3.3367E-03  9.9646E-03   
1.00E+07  0.129  1.173   0.0000E+00  0.0000E+00   0.0000E+00  0.0000E+00   2.7012E-11  1.4267E-10   3.3596E-03  1.0053E-02   
1.00E+07  0.172  1.133   0.0000E+00  0.0000E+00   0.0000E+00  0.0000E+00   1.7299E-09  9.1800E-09   3.4402E-03  1.0344E-02   
1.00E+07  0.259  1.021   0.0000E+00  0.0000E+00   0.0000E+00  0.0000E+00   1.8338E-07  9.9460E-07   3.8068E-03  1.1652E-02   
1.00E+07  0.431  0.698   0.0000E+00  0.0000E+00   0.0000E+00  0.0000E+00   1.9263E-05  1.1153E-04   4.8805E-03  1.5483E-02   
1.00E+07  0.862  0.196   0.0000E+00  0.0000E+00   0.0000E+00  0.0000E+00   1.7651E-03  1.2649E-02   9.6833E-03  3.6971E-02   
1.00E+07  2.585  0.021   0.0000E+00  0.0000E+00   0.0000E+00  0.0000E+00   5.3892E-01  9.4283E+00   1.4034E-01  7.0568E-01   
1.00E+08  0.001  2.447   0.0000E+00  0.0000E+00   0.0000E+00  0.0000E+00   0.0000E+00  0.0000E+00   2.4390E-03  6.1965E-03   
1.00E+08  0.009  2.447   0.0000E+00  0.0000E+00   0.0000E+00  0.0000E+00   2.8020E-157 1.4749E-156  2.4396E-03  6.1989E-03   
1.00E+08  0.017  2.446   0.0000E+00  0.0000E+00   0.0000E+00  0.0000E+00   4.9284E-82  2.5950E-81   2.4400E-03  6.2010E-03   
1.00E+08  0.034  2.445   0.0000E+00  0.0000E+00   0.0000E+00  0.0000E+00   4.1029E-44  2.1615E-43   2.4406E-03  6.2043E-03   
1.00E+08  0.060  2.442   0.0000E+00  0.0000E+00   0.0000E+00  0.0000E+00   1.2922E-27  6.8121E-27   2.4429E-03  6.2162E-03   
1.00E+08  0.086  2.437   0.0000E+00  0.0000E+00   0.0000E+00  0.0000E+00   6.9901E-21  3.6867E-20   2.4470E-03  6.2365E-03   
1.00E+08  0.129  2.424   0.0000E+00  0.0000E+00   0.0000E+00  0.0000E+00   1.6883E-15  8.9171E-15   2.4710E-03  6.3288E-03   
1.00E+08  0.172  2.406   0.0000E+00  0.0000E+00   0.0000E+00  0.0000E+00   1.0743E-12  5.7007E-12   2.5442E-03  6.5807E-03   
1.00E+08  0.259  2.355   0.0000E+00  0.0000E+00   0.0000E+00  0.0000E+00   1.0558E-09  5.7261E-09   2.8660E-03  7.6539E-03   
1.00E+08  0.431  2.192   0.0000E+00  0.0000E+00   0.0000E+00  0.0000E+00   6.0629E-07  3.5099E-06   3.8356E-03  1.0946E-02   
1.00E+08  0.862  1.493   0.0000E+00  0.0000E+00   0.0000E+00  0.0000E+00   4.0330E-04  2.8827E-03   8.6945E-03  3.2303E-02   
1.00E+08  2.585  0.209   0.0000E+00  0.0000E+00   0.0000E+00  0.0000E+00   5.0267E-01  8.7869E+00   1.3893E-01  6.9739E-01   
1.00E+09  0.001  5.181   0.0000E+00  0.0000E+00   0.0000E+00  0.0000E+00   0.0000E+00  0.0000E+00   1.5668E-04  1.3551E-04   
1.00E+09  0.009  5.180   0.0000E+00  0.0000E+00   0.0000E+00  0.0000E+00   4.6924E-295 2.4699E-294  1.5696E-04  1.3588E-04   
1.00E+09  0.017  5.180   0.0000E+00  0.0000E+00   0.0000E+00  0.0000E+00   6.3442E-151 3.3405E-150  1.5730E-04  1.3642E-04   
1.00E+09  0.034  5.180   0.0000E+00  0.0000E+00   0.0000E+00  0.0000E+00   1.4432E-78  7.6035E-78   1.5808E-04  1.3787E-04   
1.00E+09  0.060  5.178   0.0000E+00  0.0000E+00   0.0000E+00  0.0000E+00   2.5733E-47  1.3566E-46   1.6053E-04  1.4221E-04   
1.00E+09  0.086  5.176   0.0000E+00  0.0000E+00   0.0000E+00  0.0000E+00   1.0960E-34  5.7806E-34   1.6441E-04  1.4911E-04   
1.00E+09  0.129  5.170   0.0000E+00  0.0000E+00   0.0000E+00  0.0000E+00   1.0031E-24  5.2980E-24   1.7645E-04  1.7007E-04   
1.00E+09  0.172  5.161   0.0000E+00  0.0000E+00   0.0000E+00  0.0000E+00   1.2228E-19  6.4892E-19   2.0084E-04  2.1187E-04   
1.00E+09  0.259  5.138   0.0000E+00  0.0000E+00   0.0000E+00  0.0000E+00   2.2304E-14  1.2097E-13   2.9496E-04  3.7914E-04   
1.00E+09  0.431  5.062   0.0000E+00  0.0000E+00   0.0000E+00  0.0000E+00   7.7584E-10  4.4915E-09   6.1686E-04  1.0464E-03   
1.00E+09  0.862  4.708   0.0000E+00  0.0000E+00   0.0000E+00  0.0000E+00   9.7591E-06  6.9702E-05   3.4663E-03  1.1327E-02   
1.00E+09  2.585  1.972   0.0000E+00  0.0000E+00   0.0000E+00  0.0000E+00   2.5961E-01  4.5117E+00   1.2270E-01  6.0317E-01   
1.00E+10  0.001  11.119  0.0000E+00  0.0000E+00   0.0000E+00  0.0000E+00   0.0000E+00  0.0000E+00   0.0000E+00  0.0000E+00   
1.00E+10  0.009  11.118  0.0000E+00  0.0000E+00   0.0000E+00  0.0000E+00   0.0000E+00  0.0000E+00   2.1837E-251 7.1362E-253  
1.00E+10  0.017  11.118  0.0000E+00  0.0000E+00   0.0000E+00  0.0000E+00   1.4924E-300 7.8582E-300  2.7182E-130 1.7459E-131  
1.00E+10  0.034  11.118  0.0000E+00  0.0000E+00   0.0000E+00  0.0000E+00   2.1937E-153 1.1557E-152  2.5418E-68  5.5985E-69   
1.00E+10  0.060  11.117  0.0000E+00  0.0000E+00   0.0000E+00  0.0000E+00   4.4795E-90  2.3615E-89   4.3802E-41  1.2525E-41   
1.00E+10  0.086  11.116  0.0000E+00  0.0000E+00   0.0000E+00  0.0000E+00   1.2642E-64  6.6675E-64   4.4006E-30  1.5454E-30   
1.00E+10  0.129  11.113  0.0000E+00  0.0000E+00   0.0000E+00  0.0000E+00   1.0765E-44  5.6856E-44   2.0866E-21  9.7646E-22   
1.00E+10  0.172  11.109  0.0000E+00  0.0000E+00   0.0000E+00  0.0000E+00   1.2565E-34  6.6679E-34   5.5741E-17  3.2846E-17   
1.00E+10  0.259  11.098  0.0000E+00  0.0000E+00   0.0000E+00  0.0000E+00   2.1623E-24  1.1728E-23   2.0170E-12  1.6836E-12   
1.00E+10  0.431  11.063  0.0000E+00  0.0000E+00   0.0000E+00  0.0000E+00   6.9303E-16  4.0121E-15   1.5349E-08  2.0267E-08   
1.00E+10  0.862  10.898  0.0000E+00  0.0000E+00   0.0000E+00  0.0000E+00   7.4064E-09  5.2897E-08   3.9129E-05  9.4323E-05   
1.00E+10  2.585  9.163   0.0000E+00  0.0000E+00   0.0000E+00  0.0000E+00   1.6464E-02  2.8428E-01   2.9178E-02  1.2985E-01   
1.00E+11  0.001  23.934  0.0000E+00  0.0000E+00   0.0000E+00  0.0000E+00   0.0000E+00  0.0000E+00   0.0000E+00  0.0000E+00   
1.00E+11  0.009  23.934  0.0000E+00  0.0000E+00   0.0000E+00  0.0000E+00   0.0000E+00  0.0000E+00   0.0000E+00  0.0000E+00   
1.00E+11  0.017  23.933  0.0000E+00  0.0000E+00   0.0000E+00  0.0000E+00   0.0000E+00  0.0000E+00   0.0000E+00  0.0000E+00   
1.00E+11  0.034  23.934  0.0000E+00  0.0000E+00   0.0000E+00  0.0000E+00   8.3065E-316 4.3718E-315  0.0000E+00  0.0000E+00   
1.00E+11  0.060  23.933  0.0000E+00  0.0000E+00   0.0000E+00  0.0000E+00   2.3989E-182 1.2646E-181  0.0000E+00  0.0000E+00   
1.00E+11  0.086  23.933  0.0000E+00  0.0000E+00   0.0000E+00  0.0000E+00   3.2280E-129 1.7025E-128  0.0000E+00  0.0000E+00   
1.00E+11  0.129  23.931  0.0000E+00  0.0000E+00   0.0000E+00  0.0000E+00   9.2285E-88  4.8742E-87   0.0000E+00  0.0000E+00   
1.00E+11  0.172  23.930  0.0000E+00  0.0000E+00   0.0000E+00  0.0000E+00   6.2204E-67  3.3009E-66   0.0000E+00  0.0000E+00   
1.00E+11  0.259  23.924  0.0000E+00  0.0000E+00   0.0000E+00  0.0000E+00   6.1392E-46  3.3297E-45   0.0000E+00  0.0000E+00   
1.00E+11  0.431  23.908  0.0000E+00  0.0000E+00   0.0000E+00  0.0000E+00   7.8282E-29  4.5319E-28   0.0000E+00  0.0000E+00   
1.00E+11  0.862  23.832  0.0000E+00  0.0000E+00   0.0000E+00  0.0000E+00   2.2466E-15  1.6045E-14   0.0000E+00  0.0000E+00   
1.00E+11  2.585  23.015  0.0000E+00  0.0000E+00   0.0000E+00  0.0000E+00   7.7646E-05  1.3401E-03   0.0000E+00  0.0000E+00   
