rhoYe is density times electron fraction [g/cm^3], T is temperature [MeV], mu_e is electron chemical potential [MeV]
e-(+) cap is electron (positron) capture, e-(+) dec is electron (positron) decay
For each process, first column is neutrino production [neutrinos/baryon second] and second column is energy loss [MeV/baryon second].
rhoYe     T      mu_e    e- cap                   e+ dec                   e+ cap                   e- dec                   
1.00E+01  0.001  0.509   0.0000E+00  0.0000E+00   0.0000E+00  0.0000E+00   0.0000E+00  0.0000E+00   3.2983E-07  9.7563E-08   
1.00E+01  0.009  0.453   0.0000E+00  0.0000E+00   0.0000E+00  0.0000E+00   2.1217E-57  2.7306E-57   3.2988E-07  9.7584E-08   
1.00E+01  0.017  0.377   0.0000E+00  0.0000E+00   0.0000E+00  0.0000E+00   1.7130E-30  2.2310E-30   3.2988E-07  9.7585E-08   
1.00E+01  0.034  0.205   0.0000E+00  0.0000E+00   0.0000E+00  0.0000E+00   1.6972E-16  2.2643E-16   3.2989E-07  9.7586E-08   
1.00E+01  0.060  0.008   0.0000E+00  0.0000E+00   0.0000E+00  0.0000E+00   1.0746E-10  1.4904E-10   3.2988E-07  9.7582E-08   
1.00E+01  0.086  0.000   0.0000E+00  0.0000E+00   0.0000E+00  0.0000E+00   3.4213E-09  4.9495E-09   3.2965E-07  9.7509E-08   
1.00E+01  0.129  0.000   0.0000E+00  0.0000E+00   0.0000E+00  0.0000E+00   6.4888E-08  1.0133E-07   3.3003E-07  1.0128E-07   
1.00E+01  0.172  0.000   0.0000E+00  0.0000E+00   0.0000E+00  0.0000E+00   3.6415E-07  6.1721E-07   3.7135E-07  1.8055E-07   
1.00E+01  0.259  0.000   0.0000E+00  0.0000E+00   0.0000E+00  0.0000E+00   3.0681E-06  6.1702E-06   1.2231E-06  1.6839E-06   
1.00E+01  0.431  0.000   0.0000E+00  0.0000E+00   0.0000E+00  0.0000E+00   3.5457E-05  9.8222E-05   1.4383E-05  3.2341E-05   
1.00E+01  0.862  0.000   0.0000E+00  0.0000E+00   0.0000E+00  0.0000E+00   1.4631E-03  7.8645E-03   2.2331E-03  8.8848E-03   
1.00E+01  2.585  0.000   0.0000E+00  0.0000E+00   0.0000E+00  0.0000E+00   4.4231E-01  7.2994E+00   6.5149E-02  3.0643E-01   
1.00E+01  0.001  0.509   0.0000E+00  0.0000E+00   0.0000E+00  0.0000E+00   0.0000E+00  0.0000E+00   3.2983E-07  9.7563E-08   
1.00E+01  0.009  0.453   0.0000E+00  0.0000E+00   0.0000E+00  0.0000E+00   2.1217E-57  2.7306E-57   3.2988E-07  9.7584E-08   
1.00E+01  0.017  0.377   0.0000E+00  0.0000E+00   0.0000E+00  0.0000E+00   1.7130E-30  2.2310E-30   3.2988E-07  9.7585E-08   
1.00E+01  0.034  0.205   0.0000E+00  0.0000E+00   0.0000E+00  0.0000E+00   1.6972E-16  2.2643E-16   3.2989E-07  9.7586E-08   
1.00E+01  0.060  0.008   0.0000E+00  0.0000E+00   0.0000E+00  0.0000E+00   1.0746E-10  1.4904E-10   3.2988E-07  9.7582E-08   
1.00E+01  0.086  0.000   0.0000E+00  0.0000E+00   0.0000E+00  0.0000E+00   3.4213E-09  4.9495E-09   3.2965E-07  9.7509E-08   
1.00E+01  0.129  0.000   0.0000E+00  0.0000E+00   0.0000E+00  0.0000E+00   6.4888E-08  1.0133E-07   3.3003E-07  1.0128E-07   
1.00E+01  0.172  0.000   0.0000E+00  0.0000E+00   0.0000E+00  0.0000E+00   3.6415E-07  6.1721E-07   3.7135E-07  1.8055E-07   
1.00E+01  0.259  0.000   0.0000E+00  0.0000E+00   0.0000E+00  0.0000E+00   3.0681E-06  6.1702E-06   1.2231E-06  1.6839E-06   
1.00E+01  0.431  0.000   0.0000E+00  0.0000E+00   0.0000E+00  0.0000E+00   3.5457E-05  9.8222E-05   1.4383E-05  3.2341E-05   
1.00E+01  0.862  0.000   0.0000E+00  0.0000E+00   0.0000E+00  0.0000E+00   1.4631E-03  7.8645E-03   2.2331E-03  8.8848E-03   
1.00E+01  2.585  0.000   0.0000E+00  0.0000E+00   0.0000E+00  0.0000E+00   4.4231E-01  7.2994E+00   6.5149E-02  3.0643E-01   
1.00E+02  0.001  0.511   0.0000E+00  0.0000E+00   0.0000E+00  0.0000E+00   0.0000E+00  0.0000E+00   3.2928E-07  9.7329E-08   
1.00E+02  0.009  0.473   0.0000E+00  0.0000E+00   0.0000E+00  0.0000E+00   2.1124E-58  2.7187E-58   3.2978E-07  9.7541E-08   
1.00E+02  0.017  0.416   0.0000E+00  0.0000E+00   0.0000E+00  0.0000E+00   1.7109E-31  2.2282E-31   3.2981E-07  9.7556E-08   
1.00E+02  0.034  0.284   0.0000E+00  0.0000E+00   0.0000E+00  0.0000E+00   1.6965E-17  2.2634E-17   3.2984E-07  9.7567E-08   
1.00E+02  0.060  0.065   0.0000E+00  0.0000E+00   0.0000E+00  0.0000E+00   4.1505E-11  5.7565E-11   3.2985E-07  9.7572E-08   
1.00E+02  0.086  0.005   0.0000E+00  0.0000E+00   0.0000E+00  0.0000E+00   3.2547E-09  4.7086E-09   3.2963E-07  9.7504E-08   
1.00E+02  0.129  0.000   0.0000E+00  0.0000E+00   0.0000E+00  0.0000E+00   6.4672E-08  1.0100E-07   3.3003E-07  1.0128E-07   
1.00E+02  0.172  0.000   0.0000E+00  0.0000E+00   0.0000E+00  0.0000E+00   3.6388E-07  6.1676E-07   3.7135E-07  1.8055E-07   
1.00E+02  0.259  0.000   0.0000E+00  0.0000E+00   0.0000E+00  0.0000E+00   3.0677E-06  6.1695E-06   1.2231E-06  1.6838E-06   
1.00E+02  0.431  0.000   0.0000E+00  0.0000E+00   0.0000E+00  0.0000E+00   3.5456E-05  9.8220E-05   1.4383E-05  3.2341E-05   
1.00E+02  0.862  0.000   0.0000E+00  0.0000E+00   0.0000E+00  0.0000E+00   1.4631E-03  7.8645E-03   2.2331E-03  8.8848E-03   
1.00E+02  2.585  0.000   0.0000E+00  0.0000E+00   0.0000E+00  0.0000E+00   4.4231E-01  7.2994E+00   6.5149E-02  3.0643E-01   
1.00E+01  0.001  0.509   0.0000E+00  0.0000E+00   0.0000E+00  0.0000E+00   0.0000E+00  0.0000E+00   3.2983E-07  9.7563E-08   
1.00E+01  0.009  0.453   0.0000E+00  0.0000E+00   0.0000E+00  0.0000E+00   2.1217E-57  2.7306E-57   3.2988E-07  9.7584E-08   
1.00E+01  0.017  0.377   0.0000E+00  0.0000E+00   0.0000E+00  0.0000E+00   1.7130E-30  2.2310E-30   3.2988E-07  9.7585E-08   
1.00E+01  0.034  0.205   0.0000E+00  0.0000E+00   0.0000E+00  0.0000E+00   1.6972E-16  2.2643E-16   3.2989E-07  9.7586E-08   
1.00E+01  0.060  0.008   0.0000E+00  0.0000E+00   0.0000E+00  0.0000E+00   1.0746E-10  1.4904E-10   3.2988E-07  9.7582E-08   
1.00E+01  0.086  0.000   0.0000E+00  0.0000E+00   0.0000E+00  0.0000E+00   3.4213E-09  4.9495E-09   3.2965E-07  9.7509E-08   
1.00E+01  0.129  0.000   0.0000E+00  0.0000E+00   0.0000E+00  0.0000E+00   6.4888E-08  1.0133E-07   3.3003E-07  1.0128E-07   
1.00E+01  0.172  0.000   0.0000E+00  0.0000E+00   0.0000E+00  0.0000E+00   3.6415E-07  6.1721E-07   3.7135E-07  1.8055E-07   
1.00E+01  0.259  0.000   0.0000E+00  0.0000E+00   0.0000E+00  0.0000E+00   3.0681E-06  6.1702E-06   1.2231E-06  1.6839E-06   
1.00E+01  0.431  0.000   0.0000E+00  0.0000E+00   0.0000E+00  0.0000E+00   3.5457E-05  9.8222E-05   1.4383E-05  3.2341E-05   
1.00E+01  0.862  0.000   0.0000E+00  0.0000E+00   0.0000E+00  0.0000E+00   1.4631E-03  7.8645E-03   2.2331E-03  8.8848E-03   
1.00E+01  2.585  0.000   0.0000E+00  0.0000E+00   0.0000E+00  0.0000E+00   4.4231E-01  7.2994E+00   6.5149E-02  3.0643E-01   
1.00E+02  0.001  0.511   0.0000E+00  0.0000E+00   0.0000E+00  0.0000E+00   0.0000E+00  0.0000E+00   3.2928E-07  9.7329E-08   
1.00E+02  0.009  0.473   0.0000E+00  0.0000E+00   0.0000E+00  0.0000E+00   2.1124E-58  2.7187E-58   3.2978E-07  9.7541E-08   
1.00E+02  0.017  0.416   0.0000E+00  0.0000E+00   0.0000E+00  0.0000E+00   1.7109E-31  2.2282E-31   3.2981E-07  9.7556E-08   
1.00E+02  0.034  0.284   0.0000E+00  0.0000E+00   0.0000E+00  0.0000E+00   1.6965E-17  2.2634E-17   3.2984E-07  9.7567E-08   
1.00E+02  0.060  0.065   0.0000E+00  0.0000E+00   0.0000E+00  0.0000E+00   4.1505E-11  5.7565E-11   3.2985E-07  9.7572E-08   
1.00E+02  0.086  0.005   0.0000E+00  0.0000E+00   0.0000E+00  0.0000E+00   3.2547E-09  4.7086E-09   3.2963E-07  9.7504E-08   
1.00E+02  0.129  0.000   0.0000E+00  0.0000E+00   0.0000E+00  0.0000E+00   6.4672E-08  1.0100E-07   3.3003E-07  1.0128E-07   
1.00E+02  0.172  0.000   0.0000E+00  0.0000E+00   0.0000E+00  0.0000E+00   3.6388E-07  6.1676E-07   3.7135E-07  1.8055E-07   
1.00E+02  0.259  0.000   0.0000E+00  0.0000E+00   0.0000E+00  0.0000E+00   3.0677E-06  6.1695E-06   1.2231E-06  1.6838E-06   
1.00E+02  0.431  0.000   0.0000E+00  0.0000E+00   0.0000E+00  0.0000E+00   3.5456E-05  9.8220E-05   1.4383E-05  3.2341E-05   
1.00E+02  0.862  0.000   0.0000E+00  0.0000E+00   0.0000E+00  0.0000E+00   1.4631E-03  7.8645E-03   2.2331E-03  8.8848E-03   
1.00E+02  2.585  0.000   0.0000E+00  0.0000E+00   0.0000E+00  0.0000E+00   4.4231E-01  7.2994E+00   6.5149E-02  3.0643E-01   
1.00E+03  0.001  0.513   0.0000E+00  0.0000E+00   0.0000E+00  0.0000E+00   0.0000E+00  0.0000E+00   3.2759E-07  9.6614E-08   
1.00E+03  0.009  0.493   0.0000E+00  0.0000E+00 1.00E+01  0.001  0.509   0.0000E+00  0.0000E+00   0.0000E+00  0.0000E+00   0.0000E+00  0.0000E+00   3.2983E-07  9.7563E-08   
1.00E+01  0.009  0.453   0.0000E+00  0.0000E+00   0.0000E+00  0.0000E+00   2.1217E-57  2.7306E-57   3.2988E-07  9.7584E-08   
1.00E+01  0.017  0.377   0.0000E+00  0.0000E+00   0.0000E+00  0.0000E+00   1.7130E-30  2.2310E-30   3.2988E-07  9.7585E-08   
1.00E+01  0.034  0.205   0.0000E+00  0.0000E+00   0.0000E+00  0.0000E+00   1.6972E-16  2.2643E-16   3.2989E-07  9.7586E-08   
1.00E+01  0.060  0.008   0.0000E+00  0.0000E+00   0.0000E+00  0.0000E+00   1.0746E-10  1.4904E-10   3.2988E-07  9.7582E-08   
1.00E+01  0.086  0.000   0.0000E+00  0.0000E+00   0.0000E+00  0.0000E+00   3.4213E-09  4.9495E-09   3.2965E-07  9.7509E-08   
1.00E+01  0.129  0.000   0.0000E+00  0.0000E+00   0.0000E+00  0.0000E+00   6.4888E-08  1.0133E-07   3.3003E-07  1.0128E-07   
1.00E+01  0.172  0.000   0.0000E+00  0.0000E+00   0.0000E+00  0.0000E+00   3.6415E-07  6.1721E-07   3.7135E-07  1.8055E-07   
1.00E+01  0.259  0.000   0.0000E+00  0.0000E+00   0.0000E+00  0.0000E+00   3.0681E-06  6.1702E-06   1.2231E-06  1.6839E-06   
1.00E+01  0.431  0.000   0.0000E+00  0.0000E+00   0.0000E+00  0.0000E+00   3.5457E-05  9.8222E-05   1.4383E-05  3.2341E-05   
1.00E+01  0.862  0.000   0.0000E+00  0.0000E+00   0.0000E+00  0.0000E+00   1.4631E-03  7.8645E-03   2.2331E-03  8.8848E-03   
1.00E+01  2.585  0.000   0.0000E+00  0.0000E+00   0.0000E+00  0.0000E+00   4.4231E-01  7.2994E+00   6.5149E-02  3.0643E-01   
1.00E+02  0.001  0.511   0.0000E+00  0.0000E+00   0.0000E+00  0.0000E+00   0.0000E+00  0.0000E+00   3.2928E-07  9.7329E-08   
1.00E+02  0.009  0.473   0.0000E+00  0.0000E+00   0.0000E+00  0.0000E+00   2.1124E-58  2.7187E-58   3.2978E-07  9.7541E-08   
1.00E+02  0.017  0.416   0.0000E+00  0.0000E+00   0.0000E+00  0.0000E+00   1.7109E-31  2.2282E-31   3.2981E-07  9.7556E-08   
1.00E+02  0.034  0.284   0.0000E+00  0.0000E+00   0.0000E+00  0.0000E+00   1.6965E-17  2.2634E-17   3.2984E-07  9.7567E-08   
1.00E+02  0.060  0.065   0.0000E+00  0.0000E+00   0.0000E+00  0.0000E+00   4.1505E-11  5.7565E-11   3.2985E-07  9.7572E-08   
1.00E+02  0.086  0.005   0.0000E+00  0.0000E+00   0.0000E+00  0.0000E+00   3.2547E-09  4.7086E-09   3.2963E-07  9.7504E-08   
1.00E+02  0.129  0.000   0.0000E+00  0.0000E+00   0.0000E+00  0.0000E+00   6.4672E-08  1.0100E-07   3.3003E-07  1.0128E-07   
1.00E+02  0.172  0.000   0.0000E+00  0.0000E+00   0.0000E+00  0.0000E+00   3.6388E-07  6.1676E-07   3.7135E-07  1.8055E-07   
1.00E+02  0.259  0.000   0.0000E+00  0.0000E+00   0.0000E+00  0.0000E+00   3.0677E-06  6.1695E-06   1.2231E-06  1.6838E-06   
1.00E+02  0.431  0.000   0.0000E+00  0.0000E+00   0.0000E+00  0.0000E+00   3.5456E-05  9.8220E-05   1.4383E-05  3.2341E-05   
1.00E+02  0.862  0.000   0.0000E+00  0.0000E+00   0.0000E+00  0.0000E+00   1.4631E-03  7.8645E-03   2.2331E-03  8.8848E-03   
1.00E+02  2.585  0.000   0.0000E+00  0.0000E+00   0.0000E+00  0.0000E+00   4.4231E-01  7.2994E+00   6.5149E-02  3.0643E-01   
1.00E+03  0.001  0.513   0.0000E+00  0.0000E+00   0.0000E+00  0.0000E+00   0.0000E+00  0.0000E+00   3.2759E-07  9.6614E-08   
1.00E+03  0.009  0.493   0.0000E+00  0.0000E+00 1.00E+01  0.001  0.509   0.0000E+00  0.0000E+00   0.0000E+00  0.0000E+00   0.0000E+00  0.0000E+00   3.2983E-07  9.7563E-08   
1.00E+03  0.009  0.493   0.0000E+00  0.0000E+00   0.0000E+00  0.0000E+00   2.0216E-59  2.6018E-59   3.2878E-07  9.7125E-08   
1.00E+03  0.017  0.456   0.0000E+00  0.0000E+00   0.0000E+00  0.0000E+00   1.6899E-32  2.2009E-32   3.2912E-07  9.7273E-08   
1.00E+03  0.034  0.364   0.0000E+00  0.0000E+00   0.0000E+00  0.0000E+00   1.6895E-18  2.2540E-18   3.2936E-07  9.7376E-08   
1.00E+03  0.060  0.197   0.0000E+00  0.0000E+00   0.0000E+00  0.0000E+00   4.6758E-12  6.4851E-12   3.2952E-07  9.7447E-08   
1.00E+03  0.086  0.046   0.0000E+00  0.0000E+00   0.0000E+00  0.0000E+00   2.0255E-09  2.9301E-09   3.2947E-07  9.7446E-08   
1.00E+03  0.129  0.005   0.0000E+00  0.0000E+00   0.0000E+00  0.0000E+00   6.2555E-08  9.7689E-08   3.2994E-07  1.0125E-07   
1.00E+03  0.172  0.001   0.0000E+00  0.0000E+00   0.0000E+00  0.0000E+00   3.6127E-07  6.1232E-07   3.7129E-07  1.8053E-07   
1.00E+03  0.259  0.000   0.0000E+00  0.0000E+00   0.0000E+00  0.0000E+00   3.0640E-06  6.1620E-06   1.2230E-06  1.6838E-06   
1.00E+03  0.431  0.000   0.0000E+00  0.0000E+00   0.0000E+00  0.0000E+00   3.5450E-05  9.8202E-05   1.4383E-05  3.2341E-05   
1.00E+03  0.862  0.000   0.0000E+00  0.0000E+00   0.0000E+00  0.0000E+00   1.4630E-03  7.8643E-03   2.2331E-03  8.8848E-03   
1.00E+03  2.585  0.000   0.0000E+00  0.0000E+00   0.0000E+00  0.0000E+00   4.4231E-01  7.2994E+00   6.5149E-02  3.0643E-01   
1.00E+04  0.001  0.523   0.0000E+00  0.0000E+00   0.0000E+00  0.0000E+00   0.0000E+00  0.0000E+00   3.1712E-07  9.2232E-08   
1.00E+04  0.009  0.516   0.0000E+00  0.0000E+00   0.0000E+00  0.0000E+00   1.4728E-60  1.8955E-60   3.2049E-07  9.3687E-08   
1.00E+04  0.017  0.498   0.0000E+00  0.0000E+00   0.0000E+00  0.0000E+00   1.4985E-33  1.9515E-33   3.2259E-07  9.4607E-08   
1.00E+04  0.034  0.444   0.0000E+00  0.0000E+00   0.0000E+00  0.0000E+00   1.6210E-19  2.1627E-19   3.2462E-07  9.5512E-08   
1.00E+04  0.060  0.337   0.0000E+00  0.0000E+00   0.0000E+00  0.0000E+00   4.6098E-13  6.3937E-13   3.2619E-07  9.6195E-08   
1.00E+04  0.086  0.209   0.0000E+00  0.0000E+00   0.0000E+00  0.0000E+00   3.0532E-10  4.4169E-10   3.2710E-07  9.6587E-08   
1.00E+04  0.129  0.047   0.0000E+00  0.0000E+00   0.0000E+00  0.0000E+00   4.5181E-08  7.0548E-08   3.2896E-07  1.0091E-07   
1.00E+04  0.172  0.014   0.0000E+00  0.0000E+00   0.0000E+00  0.0000E+00   3.3612E-07  5.6964E-07   3.7070E-07  1.8031E-07   
1.00E+04  0.259  0.004   0.0000E+00  0.0000E+00   0.0000E+00  0.0000E+00   3.0270E-06  6.0874E-06   1.2226E-06  1.6835E-06   
1.00E+04  0.431  0.001   0.0000E+00  0.0000E+00   0.0000E+00  0.0000E+00   3.5384E-05  9.8018E-05   1.4382E-05  3.2339E-05   
1.00E+04  0.862  0.000   0.0000E+00  0.0000E+00   0.0000E+00  0.0000E+00   1.4628E-03  7.8627E-03   2.2331E-03  8.8847E-03   
1.00E+04  2.585  0.000   0.0000E+00  0.0000E+00   0.0000E+00  0.0000E+00   4.4231E-01  7.2994E+00   6.5149E-02  3.0642E-01   
1.00E+05  0.001  0.565   0.0000E+00  0.0000E+00   0.0000E+00  0.0000E+00   0.0000E+00  0.0000E+00   2.6869E-07  7.3015E-08   
1.00E+05  0.009  0.563   0.0000E+00  0.0000E+00   0.0000E+00  0.0000E+00   6.4728E-63  8.3304E-63   2.7097E-07  7.4000E-08   
1.00E+05  0.017  0.558   0.0000E+00  0.0000E+00   0.0000E+00  0.0000E+00   4.6643E-35  6.0745E-35   2.7503E-07  7.5843E-08   
1.00E+05  0.034  0.537   0.0000E+00  0.0000E+00   0.0000E+00  0.0000E+00   1.0941E-20  1.4597E-20   2.8448E-07  8.0052E-08   
1.00E+05  0.060  0.485   0.0000E+00  0.0000E+00   0.0000E+00  0.0000E+00   3.9571E-14  5.4884E-14   2.9570E-07  8.4896E-08   
1.00E+05  0.086  0.413   0.0000E+00  0.0000E+00   0.0000E+00  0.0000E+00   2.8410E-11  4.1098E-11   3.0357E-07  8.8146E-08   
1.00E+05  0.129  0.265   0.0000E+00  0.0000E+00   0.0000E+00  0.0000E+00   8.3633E-09  1.3056E-08   3.1445E-07  9.5896E-08   
1.00E+05  0.172  0.128   0.0000E+00  0.0000E+00   0.0000E+00  0.0000E+00   1.7372E-07  2.9424E-07   3.6304E-07  1.7758E-07   
1.00E+05  0.259  0.035   0.0000E+00  0.0000E+00   0.0000E+00  0.0000E+00   2.6820E-06  5.3911E-06   1.2187E-06  1.6804E-06   
1.00E+05  0.431  0.009   0.0000E+00  0.0000E+00   0.0000E+00  0.0000E+00   3.4730E-05  9.6193E-05   1.4375E-05  3.2323E-05   
1.00E+05  0.862  0.002   0.0000E+00  0.0000E+00   0.0000E+00  0.0000E+00   1.4598E-03  7.8470E-03   2.2330E-03  8.8840E-03   
1.00E+05  2.585  0.000   0.0000E+00  0.0000E+00   0.0000E+00  0.0000E+00   4.4228E-01  7.2989E+00   6.5149E-02  3.0642E-01   
1.00E+06  0.001  0.726   0.0000E+00  0.0000E+00   0.0000E+00  0.0000E+00   0.0000E+00  0.0000E+00   8.7044E-08  1.5283E-08   
1.00E+06  0.009  0.725   0.0000E+00  0.0000E+00   0.0000E+00  0.0000E+00   4.3030E-71  5.5380E-71   8.8784E-08  1.5814E-08   
1.00E+06  0.017  0.724   0.0000E+00  0.0000E+00   0.0000E+00  0.0000E+00   3.0569E-39  3.9811E-39   9.1204E-08  1.6724E-08   
1.00E+06  0.034  0.718   0.0000E+00  0.0000E+00   0.0000E+00  0.0000E+00   5.8259E-23  7.7728E-23   1.0218E-07  2.0575E-08   
1.00E+06  0.060  0.700   0.0000E+00  0.0000E+00   0.0000E+00  0.0000E+00   1.1157E-15  1.5474E-15   1.2727E-07  2.9423E-08   
1.00E+06  0.086  0.672   0.0000E+00  0.0000E+00   0.0000E+00  0.0000E+00   1.4122E-12  2.0429E-12   1.5522E-07  3.9235E-08   
1.00E+06  0.129  0.604   0.0000E+00  0.0000E+00   0.0000E+00  0.0000E+00   6.1017E-10  9.5250E-10   1.9930E-07  5.8010E-08   
1.00E+06  0.172  0.512   0.0000E+00  0.0000E+00   0.0000E+00  0.0000E+00   1.8825E-08  3.1867E-08   2.7656E-07  1.4726E-07   
1.00E+06  0.259  0.299   0.0000E+00  0.0000E+00   0.0000E+00  0.0000E+00   9.7903E-07  1.9633E-06   1.1672E-06  1.6380E-06   
1.00E+06  0.431  0.091   0.0000E+00  0.0000E+00   0.0000E+00  0.0000E+00   2.8841E-05  7.9774E-05   1.4298E-05  3.2147E-05   
1.00E+06  0.862  0.020   0.0000E+00  0.0000E+00   0.0000E+00  0.0000E+00   1.4309E-03  7.6912E-03   2.2314E-03  8.8766E-03   
1.00E+06  2.585  0.002   0.0000E+00  0.0000E+00   0.0000E+00  0.0000E+00   4.4197E-01  7.2937E+00   6.5142E-02  3.0638E-01   
1.00E+07  0.001  1.223   0.0000E+00  0.0000E+00   0.0000E+00  0.0000E+00   0.0000E+00  0.0000E+00   0.0000E+00  0.0000E+00   
1.00E+07  0.009  1.222   0.0000E+00  0.0000E+00   0.0000E+00  0.0000E+00   3.7692E-96  4.8509E-96   8.2125E-81  1.2973E-80   
1.00E+07  0.017  1.222   0.0000E+00  0.0000E+00   0.0000E+00  0.0000E+00   8.8154E-52  1.1481E-51   1.4673E-42  2.3183E-42   
1.00E+07  0.034  1.219   0.0000E+00  0.0000E+00   0.0000E+00  0.0000E+00   2.8086E-29  3.7472E-29   1.9628E-23  3.1030E-23   
1.00E+07  0.060  1.212   0.0000E+00  0.0000E+00   0.0000E+00  0.0000E+00   2.3108E-19  3.2051E-19   3.0968E-15  4.9042E-15   
1.00E+07  0.086  1.200   0.0000E+00  0.0000E+00   0.0000E+00  0.0000E+00   3.0696E-15  4.4406E-15   5.9078E-12  9.3797E-12   
1.00E+07  0.129  1.173   0.0000E+00  0.0000E+00   0.0000E+00  0.0000E+00   7.4903E-12  1.1693E-11   2.1164E-09  3.3792E-09   
1.00E+07  0.172  1.133   0.0000E+00  0.0000E+00   0.0000E+00  0.0000E+00   5.1238E-10  8.6730E-10   4.0309E-08  6.4800E-08   
1.00E+07  0.259  1.021   0.0000E+00  0.0000E+00   0.0000E+00  0.0000E+00   6.0176E-08  1.2052E-07   7.7460E-07  1.2689E-06   
1.00E+07  0.431  0.698   0.0000E+00  0.0000E+00   0.0000E+00  0.0000E+00   7.1875E-06  1.9779E-05   1.3278E-05  2.9780E-05   
1.00E+07  0.862  0.196   0.0000E+00  0.0000E+00   0.0000E+00  0.0000E+00   1.1723E-03  6.2982E-03   2.2150E-03  8.7968E-03   
1.00E+07  2.585  0.021   0.0000E+00  0.0000E+00   0.0000E+00  0.0000E+00   4.3889E-01  7.2423E+00   6.5072E-02  3.0601E-01   
1.00E+08  0.001  2.447   0.0000E+00  0.0000E+00   0.0000E+00  0.0000E+00   0.0000E+00  0.0000E+00   0.0000E+00  0.0000E+00   
1.00E+08  0.009  2.447   0.0000E+00  0.0000E+00   0.0000E+00  0.0000E+00   7.3168E-158 9.4166E-158  2.3462E-81  2.3467E-81   
1.00E+08  0.017  2.446   0.0000E+00  0.0000E+00   0.0000E+00  0.0000E+00   1.2207E-82  1.5898E-82   4.1963E-43  4.2018E-43   
1.00E+08  0.034  2.445   0.0000E+00  0.0000E+00   0.0000E+00  0.0000E+00   9.9987E-45  1.3340E-44   5.6250E-24  5.6519E-24   
1.00E+08  0.060  2.442   0.0000E+00  0.0000E+00   0.0000E+00  0.0000E+00   3.2196E-28  4.4654E-28   8.9344E-16  9.0653E-16   
1.00E+08  0.086  2.437   0.0000E+00  0.0000E+00   0.0000E+00  0.0000E+00   1.8076E-21  2.6149E-21   1.7218E-12  1.7724E-12   
1.00E+08  0.129  2.424   0.0000E+00  0.0000E+00   0.0000E+00  0.0000E+00   4.6816E-16  7.3081E-16   6.3188E-10  6.7184E-10   
1.00E+08  0.172  2.406   0.0000E+00  0.0000E+00   0.0000E+00  0.0000E+00   3.1818E-13  5.3858E-13   1.2428E-08  1.3746E-08   
1.00E+08  0.259  2.355   0.0000E+00  0.0000E+00   0.0000E+00  0.0000E+00   3.4641E-10  6.9374E-10   2.6089E-07  3.1860E-07   
1.00E+08  0.431  2.192   0.0000E+00  0.0000E+00   0.0000E+00  0.0000E+00   2.2568E-07  6.1996E-07   7.4219E-06  1.6267E-05   
1.00E+08  0.862  1.493   0.0000E+00  0.0000E+00   0.0000E+00  0.0000E+00   2.6532E-04  1.4232E-03   1.9988E-03  7.7694E-03   
1.00E+08  2.585  0.209   0.0000E+00  0.0000E+00   0.0000E+00  0.0000E+00   4.0925E-01  6.7482E+00   6.4362E-02  3.0216E-01   
1.00E+09  0.001  5.181   0.0000E+00  0.0000E+00   0.0000E+00  0.0000E+00   0.0000E+00  0.0000E+00   0.0000E+00  0.0000E+00   
1.00E+09  0.009  5.180   0.0000E+00  0.0000E+00   0.0000E+00  0.0000E+00   1.2253E-295 1.5770E-295  1.4108E-214 1.2641E-214  
1.00E+09  0.017  5.180   0.0000E+00  0.0000E+00   0.0000E+00  0.0000E+00   1.5714E-151 2.0465E-151  1.5153E-109 1.3575E-109  
1.00E+09  0.034  5.180   0.0000E+00  0.0000E+00   0.0000E+00  0.0000E+00   3.5172E-79  4.6925E-79   5.0262E-57  4.5000E-57   
1.00E+09  0.060  5.178   0.0000E+00  0.0000E+00   0.0000E+00  0.0000E+00   6.4115E-48  8.8925E-48   1.7679E-34  1.6119E-34   
1.00E+09  0.086  5.176   0.0000E+00  0.0000E+00   0.0000E+00  0.0000E+00   2.8343E-35  4.1001E-35   2.3976E-25  2.3589E-25   
1.00E+09  0.129  5.170   0.0000E+00  0.0000E+00   0.0000E+00  0.0000E+00   2.7815E-25  4.3421E-25   4.9095E-18  5.5345E-18   
1.00E+09  0.172  5.161   0.0000E+00  0.0000E+00   0.0000E+00  0.0000E+00   3.6219E-20  6.1308E-20   2.9669E-14  3.7082E-14   
1.00E+09  0.259  5.138   0.0000E+00  0.0000E+00   0.0000E+00  0.0000E+00   7.3183E-15  1.4656E-14   2.5968E-10  3.8683E-10   
1.00E+09  0.431  5.062   0.0000E+00  0.0000E+00   0.0000E+00  0.0000E+00   2.8878E-10  7.9324E-10   6.9400E-07  1.4522E-06   
1.00E+09  0.862  4.708   0.0000E+00  0.0000E+00   0.0000E+00  0.0000E+00   6.4016E-06  3.4322E-05   8.6879E-04  2.9442E-03   
1.00E+09  2.585  1.972   0.0000E+00  0.0000E+00   0.0000E+00  0.0000E+00   2.1090E-01  3.4594E+00   5.6220E-02  2.5879E-01   
1.00E+10  0.001  11.119  0.0000E+00  0.0000E+00   0.0000E+00  0.0000E+00   0.0000E+00  0.0000E+00   0.0000E+00  0.0000E+00   
1.00E+10  0.009  11.118  0.0000E+00  0.0000E+00   0.0000E+00  0.0000E+00   0.0000E+00  0.0000E+00   0.0000E+00  0.0000E+00   
1.00E+10  0.017  11.118  0.0000E+00  0.0000E+00   0.0000E+00  0.0000E+00   3.6965E-301 4.8142E-301  1.5399E-230 1.9125E-231  
1.00E+10  0.034  11.118  0.0000E+00  0.0000E+00   0.0000E+00  0.0000E+00   5.3461E-154 7.1326E-154  8.2608E-118 1.3839E-118  
1.00E+10  0.060  11.117  0.0000E+00  0.0000E+00   0.0000E+00  0.0000E+00   1.1161E-90  1.5480E-90   3.4817E-69  9.0340E-70   
1.00E+10  0.086  11.116  0.0000E+00  0.0000E+00   0.0000E+00  0.0000E+00   3.2691E-65  4.7292E-65   1.5799E-49  5.6105E-50   
1.00E+10  0.129  11.113  0.0000E+00  0.0000E+00   0.0000E+00  0.0000E+00   2.9850E-45  4.6597E-45   4.9459E-34  2.5410E-34   
1.00E+10  0.172  11.109  0.0000E+00  0.0000E+00   0.0000E+00  0.0000E+00   3.7216E-35  6.2996E-35   3.8175E-26  2.5770E-26   
1.00E+10  0.259  11.098  0.0000E+00  0.0000E+00   0.0000E+00  0.0000E+00   7.0948E-25  1.4208E-24   4.6783E-18  4.6636E-18   
1.00E+10  0.431  11.063  0.0000E+00  0.0000E+00   0.0000E+00  0.0000E+00   2.5795E-16  7.0856E-16   2.4597E-11  3.7604E-11   
1.00E+10  0.862  10.898  0.0000E+00  0.0000E+00   0.0000E+00  0.0000E+00   4.8579E-09  2.6045E-08   4.2976E-06  1.0870E-05   
1.00E+10  2.585  9.163   0.0000E+00  0.0000E+00   0.0000E+00  0.0000E+00   1.3343E-02  2.1759E-01   1.1327E-02  4.8689E-02   
1.00E+11  0.001  23.934  0.0000E+00  0.0000E+00   0.0000E+00  0.0000E+00   0.0000E+00  0.0000E+00   0.0000E+00  0.0000E+00   
1.00E+11  0.009  23.934  0.0000E+00  0.0000E+00   0.0000E+00  0.0000E+00   0.0000E+00  0.0000E+00   0.0000E+00  0.0000E+00   
1.00E+11  0.017  23.933  0.0000E+00  0.0000E+00   0.0000E+00  0.0000E+00   0.0000E+00  0.0000E+00   0.0000E+00  0.0000E+00   
1.00E+11  0.034  23.934  0.0000E+00  0.0000E+00   0.0000E+00  0.0000E+00   2.1806E-316 2.7977E-316  0.0000E+00  0.0000E+00   
1.00E+11  0.060  23.933  0.0000E+00  0.0000E+00   0.0000E+00  0.0000E+00   5.9770E-183 8.2898E-183  0.0000E+00  0.0000E+00   
1.00E+11  0.086  23.933  0.0000E+00  0.0000E+00   0.0000E+00  0.0000E+00   8.3474E-130 1.2076E-129  0.0000E+00  0.0000E+00   
1.00E+11  0.129  23.931  0.0000E+00  0.0000E+00   0.0000E+00  0.0000E+00   2.5590E-88  3.9947E-88   0.0000E+00  0.0000E+00   
1.00E+11  0.172  23.930  0.0000E+00  0.0000E+00   0.0000E+00  0.0000E+00   1.8424E-67  3.1186E-67   0.0000E+00  0.0000E+00   
1.00E+11  0.259  23.924  0.0000E+00  0.0000E+00   0.0000E+00  0.0000E+00   2.0144E-46  4.0341E-46   0.0000E+00  0.0000E+00   
1.00E+11  0.431  23.908  0.0000E+00  0.0000E+00   0.0000E+00  0.0000E+00   2.9137E-29  8.0037E-29   0.0000E+00  0.0000E+00   
1.00E+11  0.862  23.832  0.0000E+00  0.0000E+00   0.0000E+00  0.0000E+00   1.4736E-15  7.9003E-15   0.0000E+00  0.0000E+00   
1.00E+11  2.585  23.015  0.0000E+00  0.0000E+00   0.0000E+00  0.0000E+00   6.2915E-05  1.0255E-03   0.0000E+00  0.0000E+00   
