rhoYe is density times electron fraction [g/cm^3], T is temperature [MeV], mu_e is electron chemical potential [MeV]
e-(+) cap is electron (positron) capture, e-(+) dec is electron (positron) decay
For each process, first column is neutrino production [neutrinos/baryon second] and second column is energy loss [MeV/baryon second].
rhoYe     T      mu_e    e- cap                   e+ dec                   e+ cap                   e- dec                   
1.00E+01  0.001  0.509   0.0000E+00  0.0000E+00   0.0000E+00  0.0000E+00   0.0000E+00  0.0000E+00   2.7503E-09  3.2912E-10   
1.00E+01  0.009  0.453   0.0000E+00  0.0000E+00   0.0000E+00  0.0000E+00   9.7540E-59  1.1833E-58   2.7520E-09  3.2941E-10   
1.00E+01  0.017  0.377   0.0000E+00  0.0000E+00   0.0000E+00  0.0000E+00   9.0750E-32  1.1176E-31   2.7522E-09  3.2944E-10   
1.00E+01  0.034  0.205   0.0000E+00  0.0000E+00   0.0000E+00  0.0000E+00   9.9728E-18  1.2650E-17   2.7523E-09  3.2945E-10   
1.00E+01  0.060  0.008   0.0000E+00  0.0000E+00   0.0000E+00  0.0000E+00   6.7151E-12  8.9196E-12   2.7521E-09  3.2943E-10   
1.00E+01  0.086  0.000   0.0000E+00  0.0000E+00   0.0000E+00  0.0000E+00   2.2045E-10  3.0732E-10   2.7480E-09  3.2891E-10   
1.00E+01  0.129  0.000   0.0000E+00  0.0000E+00   0.0000E+00  0.0000E+00   4.3105E-09  6.5281E-09   2.7339E-09  3.4438E-10   
1.00E+01  0.172  0.000   0.0000E+00  0.0000E+00   0.0000E+00  0.0000E+00   2.4810E-08  4.0798E-08   3.1425E-09  8.6032E-10   
1.00E+01  0.259  0.000   0.0000E+00  0.0000E+00   0.0000E+00  0.0000E+00   2.2327E-07  4.3050E-07   2.2086E-08  2.6260E-08   
1.00E+01  0.431  0.000   0.0000E+00  0.0000E+00   0.0000E+00  0.0000E+00   3.3538E-06  8.7588E-06   1.0225E-06  1.7636E-06   
1.00E+01  0.862  0.000   0.0000E+00  0.0000E+00   0.0000E+00  0.0000E+00   2.9093E-04  1.3318E-03   8.3731E-05  2.4910E-04   
1.00E+01  2.585  0.000   0.0000E+00  0.0000E+00   0.0000E+00  0.0000E+00   3.7136E-01  4.8384E+00   8.2888E-03  3.1373E-02   
1.00E+01  0.001  0.509   0.0000E+00  0.0000E+00   0.0000E+00  0.0000E+00   0.0000E+00  0.0000E+00   2.7503E-09  3.2912E-10   
1.00E+01  0.009  0.453   0.0000E+00  0.0000E+00   0.0000E+00  0.0000E+00   9.7540E-59  1.1833E-58   2.7520E-09  3.2941E-10   
1.00E+01  0.017  0.377   0.0000E+00  0.0000E+00   0.0000E+00  0.0000E+00   9.0750E-32  1.1176E-31   2.7522E-09  3.2944E-10   
1.00E+01  0.034  0.205   0.0000E+00  0.0000E+00   0.0000E+00  0.0000E+00   9.9728E-18  1.2650E-17   2.7523E-09  3.2945E-10   
1.00E+01  0.060  0.008   0.0000E+00  0.0000E+00   0.0000E+00  0.0000E+00   6.7151E-12  8.9196E-12   2.7521E-09  3.2943E-10   
1.00E+01  0.086  0.000   0.0000E+00  0.0000E+00   0.0000E+00  0.0000E+00   2.2045E-10  3.0732E-10   2.7480E-09  3.2891E-10   
1.00E+01  0.129  0.000   0.0000E+00  0.0000E+00   0.0000E+00  0.0000E+00   4.3105E-09  6.5281E-09   2.7339E-09  3.4438E-10   
1.00E+01  0.172  0.000   0.0000E+00  0.0000E+00   0.0000E+00  0.0000E+00   2.4810E-08  4.0798E-08   3.1425E-09  8.6032E-10   
1.00E+01  0.259  0.000   0.0000E+00  0.0000E+00   0.0000E+00  0.0000E+00   2.2327E-07  4.3050E-07   2.2086E-08  2.6260E-08   
1.00E+01  0.431  0.000   0.0000E+00  0.0000E+00   0.0000E+00  0.0000E+00   3.3538E-06  8.7588E-06   1.0225E-06  1.7636E-06   
1.00E+01  0.862  0.000   0.0000E+00  0.0000E+00   0.0000E+00  0.0000E+00   2.9093E-04  1.3318E-03   8.3731E-05  2.4910E-04   
1.00E+01  2.585  0.000   0.0000E+00  0.0000E+00   0.0000E+00  0.0000E+00   3.7136E-01  4.8384E+00   8.2888E-03  3.1373E-02   
1.00E+02  0.001  0.511   0.0000E+00  0.0000E+00   0.0000E+00  0.0000E+00   0.0000E+00  0.0000E+00   2.7308E-09  3.2584E-10   
1.00E+02  0.009  0.473   0.0000E+00  0.0000E+00   0.0000E+00  0.0000E+00   9.7115E-60  1.1782E-59   2.7487E-09  3.2888E-10   
1.00E+02  0.017  0.416   0.0000E+00  0.0000E+00   0.0000E+00  0.0000E+00   9.0638E-33  1.1162E-32   2.7501E-09  3.2912E-10   
1.00E+02  0.034  0.284   0.0000E+00  0.0000E+00   0.0000E+00  0.0000E+00   9.9687E-19  1.2645E-18   2.7511E-09  3.2928E-10   
1.00E+02  0.060  0.065   0.0000E+00  0.0000E+00   0.0000E+00  0.0000E+00   2.5936E-12  3.4450E-12   2.7515E-09  3.2936E-10   
1.00E+02  0.086  0.005   0.0000E+00  0.0000E+00   0.0000E+00  0.0000E+00   2.0972E-10  2.9236E-10   2.7477E-09  3.2888E-10   
1.00E+02  0.129  0.000   0.0000E+00  0.0000E+00   0.0000E+00  0.0000E+00   4.2962E-09  6.5064E-09   2.7338E-09  3.4436E-10   
1.00E+02  0.172  0.000   0.0000E+00  0.0000E+00   0.0000E+00  0.0000E+00   2.4792E-08  4.0769E-08   3.1424E-09  8.6031E-10   
1.00E+02  0.259  0.000   0.0000E+00  0.0000E+00   0.0000E+00  0.0000E+00   2.2325E-07  4.3045E-07   2.2085E-08  2.6260E-08   
1.00E+02  0.431  0.000   0.0000E+00  0.0000E+00   0.0000E+00  0.0000E+00   3.3538E-06  8.7586E-06   1.0225E-06  1.7636E-06   
1.00E+02  0.862  0.000   0.0000E+00  0.0000E+00   0.0000E+00  0.0000E+00   2.9093E-04  1.3318E-03   8.3731E-05  2.4910E-04   
1.00E+02  2.585  0.000   0.0000E+00  0.0000E+00   0.0000E+00  0.0000E+00   3.7136E-01  4.8384E+00   8.2888E-03  3.1373E-02   
1.00E+01  0.001  0.509   0.0000E+00  0.0000E+00   0.0000E+00  0.0000E+00   0.0000E+00  0.0000E+00   2.7503E-09  3.2912E-10   
1.00E+01  0.009  0.453   0.0000E+00  0.0000E+00   0.0000E+00  0.0000E+00   9.7540E-59  1.1833E-58   2.7520E-09  3.2941E-10   
1.00E+01  0.017  0.377   0.0000E+00  0.0000E+00   0.0000E+00  0.0000E+00   9.0750E-32  1.1176E-31   2.7522E-09  3.2944E-10   
1.00E+01  0.034  0.205   0.0000E+00  0.0000E+00   0.0000E+00  0.0000E+00   9.9728E-18  1.2650E-17   2.7523E-09  3.2945E-10   
1.00E+01  0.060  0.008   0.0000E+00  0.0000E+00   0.0000E+00  0.0000E+00   6.7151E-12  8.9196E-12   2.7521E-09  3.2943E-10   
1.00E+01  0.086  0.000   0.0000E+00  0.0000E+00   0.0000E+00  0.0000E+00   2.2045E-10  3.0732E-10   2.7480E-09  3.2891E-10   
1.00E+01  0.129  0.000   0.0000E+00  0.0000E+00   0.0000E+00  0.0000E+00   4.3105E-09  6.5281E-09   2.7339E-09  3.4438E-10   
1.00E+01  0.172  0.000   0.0000E+00  0.0000E+00   0.0000E+00  0.0000E+00   2.4810E-08  4.0798E-08   3.1425E-09  8.6032E-10   
1.00E+01  0.259  0.000   0.0000E+00  0.0000E+00   0.0000E+00  0.0000E+00   2.2327E-07  4.3050E-07   2.2086E-08  2.6260E-08   
1.00E+01  0.431  0.000   0.0000E+00  0.0000E+00   0.0000E+00  0.0000E+00   3.3538E-06  8.7588E-06   1.0225E-06  1.7636E-06   
1.00E+01  0.862  0.000   0.0000E+00  0.0000E+00   0.0000E+00  0.0000E+00   2.9093E-04  1.3318E-03   8.3731E-05  2.4910E-04   
1.00E+01  2.585  0.000   0.0000E+00  0.0000E+00   0.0000E+00  0.0000E+00   3.7136E-01  4.8384E+00   8.2888E-03  3.1373E-02   
1.00E+02  0.001  0.511   0.0000E+00  0.0000E+00   0.0000E+00  0.0000E+00   0.0000E+00  0.0000E+00   2.7308E-09  3.2584E-10   
1.00E+02  0.009  0.473   0.0000E+00  0.0000E+00   0.0000E+00  0.0000E+00   9.7115E-60  1.1782E-59   2.7487E-09  3.2888E-10   
1.00E+02  0.017  0.416   0.0000E+00  0.0000E+00   0.0000E+00  0.0000E+00   9.0638E-33  1.1162E-32   2.7501E-09  3.2912E-10   
1.00E+02  0.034  0.284   0.0000E+00  0.0000E+00   0.0000E+00  0.0000E+00   9.9687E-19  1.2645E-18   2.7511E-09  3.2928E-10   
1.00E+02  0.060  0.065   0.0000E+00  0.0000E+00   0.0000E+00  0.0000E+00   2.5936E-12  3.4450E-12   2.7515E-09  3.2936E-10   
1.00E+02  0.086  0.005   0.0000E+00  0.0000E+00   0.0000E+00  0.0000E+00   2.0972E-10  2.9236E-10   2.7477E-09  3.2888E-10   
1.00E+02  0.129  0.000   0.0000E+00  0.0000E+00   0.0000E+00  0.0000E+00   4.2962E-09  6.5064E-09   2.7338E-09  3.4436E-10   
1.00E+02  0.172  0.000   0.0000E+00  0.0000E+00   0.0000E+00  0.0000E+00   2.4792E-08  4.0769E-08   3.1424E-09  8.6031E-10   
1.00E+02  0.259  0.000   0.0000E+00  0.0000E+00   0.0000E+00  0.0000E+00   2.2325E-07  4.3045E-07   2.2085E-08  2.6260E-08   
1.00E+02  0.431  0.000   0.0000E+00  0.0000E+00   0.0000E+00  0.0000E+00   3.3538E-06  8.7586E-06   1.0225E-06  1.7636E-06   
1.00E+02  0.862  0.000   0.0000E+00  0.0000E+00   0.0000E+00  0.0000E+00   2.9093E-04  1.3318E-03   8.3731E-05  2.4910E-04   
1.00E+02  2.585  0.000   0.0000E+00  0.0000E+00   0.0000E+00  0.0000E+00   3.7136E-01  4.8384E+00   8.2888E-03  3.1373E-02   
1.00E+03  0.001  0.513   0.0000E+00  0.0000E+00   0.0000E+00  0.0000E+00   0.0000E+00  0.0000E+00   2.6713E-09  3.1590E-10   
1.00E+03  0.009  0.493   0.0000E+00  0.0000E+00 1.00E+01  0.001  0.509   0.0000E+00  0.0000E+00   0.0000E+00  0.0000E+00   0.0000E+00  0.0000E+00   2.7503E-09  3.2912E-10   
1.00E+01  0.009  0.453   0.0000E+00  0.0000E+00   0.0000E+00  0.0000E+00   9.7540E-59  1.1833E-58   2.7520E-09  3.2941E-10   
1.00E+01  0.017  0.377   0.0000E+00  0.0000E+00   0.0000E+00  0.0000E+00   9.0750E-32  1.1176E-31   2.7522E-09  3.2944E-10   
1.00E+01  0.034  0.205   0.0000E+00  0.0000E+00   0.0000E+00  0.0000E+00   9.9728E-18  1.2650E-17   2.7523E-09  3.2945E-10   
1.00E+01  0.060  0.008   0.0000E+00  0.0000E+00   0.0000E+00  0.0000E+00   6.7151E-12  8.9196E-12   2.7521E-09  3.2943E-10   
1.00E+01  0.086  0.000   0.0000E+00  0.0000E+00   0.0000E+00  0.0000E+00   2.2045E-10  3.0732E-10   2.7480E-09  3.2891E-10   
1.00E+01  0.129  0.000   0.0000E+00  0.0000E+00   0.0000E+00  0.0000E+00   4.3105E-09  6.5281E-09   2.7339E-09  3.4438E-10   
1.00E+01  0.172  0.000   0.0000E+00  0.0000E+00   0.0000E+00  0.0000E+00   2.4810E-08  4.0798E-08   3.1425E-09  8.6032E-10   
1.00E+01  0.259  0.000   0.0000E+00  0.0000E+00   0.0000E+00  0.0000E+00   2.2327E-07  4.3050E-07   2.2086E-08  2.6260E-08   
1.00E+01  0.431  0.000   0.0000E+00  0.0000E+00   0.0000E+00  0.0000E+00   3.3538E-06  8.7588E-06   1.0225E-06  1.7636E-06   
1.00E+01  0.862  0.000   0.0000E+00  0.0000E+00   0.0000E+00  0.0000E+00   2.9093E-04  1.3318E-03   8.3731E-05  2.4910E-04   
1.00E+01  2.585  0.000   0.0000E+00  0.0000E+00   0.0000E+00  0.0000E+00   3.7136E-01  4.8384E+00   8.2888E-03  3.1373E-02   
1.00E+02  0.001  0.511   0.0000E+00  0.0000E+00   0.0000E+00  0.0000E+00   0.0000E+00  0.0000E+00   2.7308E-09  3.2584E-10   
1.00E+02  0.009  0.473   0.0000E+00  0.0000E+00   0.0000E+00  0.0000E+00   9.7115E-60  1.1782E-59   2.7487E-09  3.2888E-10   
1.00E+02  0.017  0.416   0.0000E+00  0.0000E+00   0.0000E+00  0.0000E+00   9.0638E-33  1.1162E-32   2.7501E-09  3.2912E-10   
1.00E+02  0.034  0.284   0.0000E+00  0.0000E+00   0.0000E+00  0.0000E+00   9.9687E-19  1.2645E-18   2.7511E-09  3.2928E-10   
1.00E+02  0.060  0.065   0.0000E+00  0.0000E+00   0.0000E+00  0.0000E+00   2.5936E-12  3.4450E-12   2.7515E-09  3.2936E-10   
1.00E+02  0.086  0.005   0.0000E+00  0.0000E+00   0.0000E+00  0.0000E+00   2.0972E-10  2.9236E-10   2.7477E-09  3.2888E-10   
1.00E+02  0.129  0.000   0.0000E+00  0.0000E+00   0.0000E+00  0.0000E+00   4.2962E-09  6.5064E-09   2.7338E-09  3.4436E-10   
1.00E+02  0.172  0.000   0.0000E+00  0.0000E+00   0.0000E+00  0.0000E+00   2.4792E-08  4.0769E-08   3.1424E-09  8.6031E-10   
1.00E+02  0.259  0.000   0.0000E+00  0.0000E+00   0.0000E+00  0.0000E+00   2.2325E-07  4.3045E-07   2.2085E-08  2.6260E-08   
1.00E+02  0.431  0.000   0.0000E+00  0.0000E+00   0.0000E+00  0.0000E+00   3.3538E-06  8.7586E-06   1.0225E-06  1.7636E-06   
1.00E+02  0.862  0.000   0.0000E+00  0.0000E+00   0.0000E+00  0.0000E+00   2.9093E-04  1.3318E-03   8.3731E-05  2.4910E-04   
1.00E+02  2.585  0.000   0.0000E+00  0.0000E+00   0.0000E+00  0.0000E+00   3.7136E-01  4.8384E+00   8.2888E-03  3.1373E-02   
1.00E+03  0.001  0.513   0.0000E+00  0.0000E+00   0.0000E+00  0.0000E+00   0.0000E+00  0.0000E+00   2.6713E-09  3.1590E-10   
1.00E+03  0.009  0.493   0.0000E+00  0.0000E+00 1.00E+01  0.001  0.509   0.0000E+00  0.0000E+00   0.0000E+00  0.0000E+00   0.0000E+00  0.0000E+00   2.7503E-09  3.2912E-10   
1.00E+03  0.009  0.493   0.0000E+00  0.0000E+00   0.0000E+00  0.0000E+00   9.2938E-61  1.1275E-60   2.7162E-09  3.2365E-10   
1.00E+03  0.017  0.456   0.0000E+00  0.0000E+00   0.0000E+00  0.0000E+00   8.9526E-34  1.1025E-33   2.7294E-09  3.2594E-10   
1.00E+03  0.034  0.364   0.0000E+00  0.0000E+00   0.0000E+00  0.0000E+00   9.9275E-20  1.2593E-19   2.7389E-09  3.2752E-10   
1.00E+03  0.060  0.197   0.0000E+00  0.0000E+00   0.0000E+00  0.0000E+00   2.9219E-13  3.8811E-13   2.7447E-09  3.2843E-10   
1.00E+03  0.086  0.046   0.0000E+00  0.0000E+00   0.0000E+00  0.0000E+00   1.3051E-10  1.8193E-10   2.7449E-09  3.2851E-10   
1.00E+03  0.129  0.005   0.0000E+00  0.0000E+00   0.0000E+00  0.0000E+00   4.1555E-09  6.2933E-09   2.7326E-09  3.4420E-10   
1.00E+03  0.172  0.001   0.0000E+00  0.0000E+00   0.0000E+00  0.0000E+00   2.4614E-08  4.0475E-08   3.1417E-09  8.6020E-10   
1.00E+03  0.259  0.000   0.0000E+00  0.0000E+00   0.0000E+00  0.0000E+00   2.2298E-07  4.2992E-07   2.2085E-08  2.6259E-08   
1.00E+03  0.431  0.000   0.0000E+00  0.0000E+00   0.0000E+00  0.0000E+00   3.3532E-06  8.7570E-06   1.0225E-06  1.7636E-06   
1.00E+03  0.862  0.000   0.0000E+00  0.0000E+00   0.0000E+00  0.0000E+00   2.9093E-04  1.3318E-03   8.3731E-05  2.4910E-04   
1.00E+03  2.585  0.000   0.0000E+00  0.0000E+00   0.0000E+00  0.0000E+00   3.7136E-01  4.8384E+00   8.2888E-03  3.1373E-02   
1.00E+04  0.001  0.523   0.0000E+00  0.0000E+00   0.0000E+00  0.0000E+00   0.0000E+00  0.0000E+00   2.3235E-09  2.5963E-10   
1.00E+04  0.009  0.516   0.0000E+00  0.0000E+00   0.0000E+00  0.0000E+00   6.7710E-62  8.2145E-62   2.4526E-09  2.8195E-10   
1.00E+04  0.017  0.498   0.0000E+00  0.0000E+00   0.0000E+00  0.0000E+00   7.9382E-35  9.7756E-35   2.5377E-09  2.9676E-10   
1.00E+04  0.034  0.444   0.0000E+00  0.0000E+00   0.0000E+00  0.0000E+00   9.5254E-21  1.2082E-20   2.6207E-09  3.1060E-10   
1.00E+04  0.060  0.337   0.0000E+00  0.0000E+00   0.0000E+00  0.0000E+00   2.8807E-14  3.8263E-14   2.6768E-09  3.1920E-10   
1.00E+04  0.086  0.209   0.0000E+00  0.0000E+00   0.0000E+00  0.0000E+00   1.9673E-11  2.7424E-11   2.7033E-09  3.2302E-10   
1.00E+04  0.129  0.047   0.0000E+00  0.0000E+00   0.0000E+00  0.0000E+00   3.0012E-09  4.5446E-09   2.7181E-09  3.4234E-10   
1.00E+04  0.172  0.014   0.0000E+00  0.0000E+00   0.0000E+00  0.0000E+00   2.2899E-08  3.7653E-08   3.1339E-09  8.5900E-10   
1.00E+04  0.259  0.004   0.0000E+00  0.0000E+00   0.0000E+00  0.0000E+00   2.2029E-07  4.2472E-07   2.2078E-08  2.6253E-08   
1.00E+04  0.431  0.001   0.0000E+00  0.0000E+00   0.0000E+00  0.0000E+00   3.3469E-06  8.7405E-06   1.0224E-06  1.7635E-06   
1.00E+04  0.862  0.000   0.0000E+00  0.0000E+00   0.0000E+00  0.0000E+00   2.9087E-04  1.3315E-03   8.3730E-05  2.4909E-04   
1.00E+04  2.585  0.000   0.0000E+00  0.0000E+00   0.0000E+00  0.0000E+00   3.7135E-01  4.8383E+00   8.2888E-03  3.1373E-02   
1.00E+05  0.001  0.565   0.0000E+00  0.0000E+00   0.0000E+00  0.0000E+00   0.0000E+00  0.0000E+00   1.1037E-09  9.2436E-11   
1.00E+05  0.009  0.563   0.0000E+00  0.0000E+00   0.0000E+00  0.0000E+00   2.9757E-64  3.6101E-64   1.1856E-09  1.0490E-10   
1.00E+05  0.017  0.558   0.0000E+00  0.0000E+00   0.0000E+00  0.0000E+00   2.4709E-36  3.0429E-36   1.3576E-09  1.3223E-10   
1.00E+05  0.034  0.537   0.0000E+00  0.0000E+00   0.0000E+00  0.0000E+00   6.4292E-22  8.1552E-22   1.7269E-09  1.8865E-10   
1.00E+05  0.060  0.485   0.0000E+00  0.0000E+00   0.0000E+00  0.0000E+00   2.4728E-15  3.2846E-15   2.0981E-09  2.4241E-10   
1.00E+05  0.086  0.413   0.0000E+00  0.0000E+00   0.0000E+00  0.0000E+00   1.8305E-12  2.5517E-12   2.3094E-09  2.7174E-10   
1.00E+05  0.129  0.265   0.0000E+00  0.0000E+00   0.0000E+00  0.0000E+00   5.5548E-10  8.4094E-10   2.5090E-09  3.1550E-10   
1.00E+05  0.172  0.128   0.0000E+00  0.0000E+00   0.0000E+00  0.0000E+00   1.1833E-08  1.9445E-08   3.0337E-09  8.4349E-10   
1.00E+05  0.259  0.035   0.0000E+00  0.0000E+00   0.0000E+00  0.0000E+00   1.9515E-07  3.7609E-07   2.2008E-08  2.6189E-08   
1.00E+05  0.431  0.009   0.0000E+00  0.0000E+00   0.0000E+00  0.0000E+00   3.2848E-06  8.5774E-06   1.0217E-06  1.7621E-06   
1.00E+05  0.862  0.002   0.0000E+00  0.0000E+00   0.0000E+00  0.0000E+00   2.9028E-04  1.3288E-03   8.3719E-05  2.4906E-04   
1.00E+05  2.585  0.000   0.0000E+00  0.0000E+00   0.0000E+00  0.0000E+00   3.7133E-01  4.8380E+00   8.2887E-03  3.1372E-02   
1.00E+06  0.001  0.726   0.0000E+00  0.0000E+00   0.0000E+00  0.0000E+00   0.0000E+00  0.0000E+00   0.0000E+00  0.0000E+00   
1.00E+06  0.009  0.725   0.0000E+00  0.0000E+00   0.0000E+00  0.0000E+00   1.9782E-72  2.3999E-72   2.3943E-90  2.4261E-90   
1.00E+06  0.017  0.724   0.0000E+00  0.0000E+00   0.0000E+00  0.0000E+00   1.6194E-40  1.9942E-40   4.0988E-48  4.1545E-48   
1.00E+06  0.034  0.718   0.0000E+00  0.0000E+00   0.0000E+00  0.0000E+00   3.4234E-24  4.3424E-24   5.3747E-27  5.4563E-27   
1.00E+06  0.060  0.700   0.0000E+00  0.0000E+00   0.0000E+00  0.0000E+00   6.9720E-17  9.2607E-17   6.0651E-18  6.1804E-18   
1.00E+06  0.086  0.672   0.0000E+00  0.0000E+00   0.0000E+00  0.0000E+00   9.0989E-14  1.2684E-13   6.1191E-10  6.6236E-11   
1.00E+06  0.129  0.604   0.0000E+00  0.0000E+00   0.0000E+00  0.0000E+00   4.0526E-11  6.1349E-11   1.1674E-09  1.4895E-10   
1.00E+06  0.172  0.512   0.0000E+00  0.0000E+00   0.0000E+00  0.0000E+00   1.2820E-09  2.1055E-09   2.0301E-09  6.8274E-10   
1.00E+06  0.259  0.299   0.0000E+00  0.0000E+00   0.0000E+00  0.0000E+00   7.1174E-08  1.3688E-07   2.1078E-08  2.5309E-08   
1.00E+06  0.431  0.091   0.0000E+00  0.0000E+00   0.0000E+00  0.0000E+00   2.7259E-06  7.1107E-06   1.0144E-06  1.7468E-06   
1.00E+06  0.862  0.020   0.0000E+00  0.0000E+00   0.0000E+00  0.0000E+00   2.8449E-04  1.3022E-03   8.3611E-05  2.4872E-04   
1.00E+06  2.585  0.002   0.0000E+00  0.0000E+00   0.0000E+00  0.0000E+00   3.7106E-01  4.8345E+00   8.2876E-03  3.1367E-02   
1.00E+07  0.001  1.223   0.0000E+00  0.0000E+00   0.0000E+00  0.0000E+00   0.0000E+00  0.0000E+00   0.0000E+00  0.0000E+00   
1.00E+07  0.009  1.222   0.0000E+00  0.0000E+00   0.0000E+00  0.0000E+00   1.7328E-97  2.1022E-97   1.3552E-90  1.0543E-90   
1.00E+07  0.017  1.222   0.0000E+00  0.0000E+00   0.0000E+00  0.0000E+00   4.6700E-53  5.7510E-53   2.3220E-48  1.8088E-48   
1.00E+07  0.034  1.219   0.0000E+00  0.0000E+00   0.0000E+00  0.0000E+00   1.6504E-30  2.0934E-30   3.0505E-27  2.3882E-27   
1.00E+07  0.060  1.212   0.0000E+00  0.0000E+00   0.0000E+00  0.0000E+00   1.4440E-20  1.9181E-20   3.4647E-18  2.7493E-18   
1.00E+07  0.086  1.200   0.0000E+00  0.0000E+00   0.0000E+00  0.0000E+00   1.9778E-16  2.7571E-16   1.4706E-14  1.1894E-14   
1.00E+07  0.129  1.173   0.0000E+00  0.0000E+00   0.0000E+00  0.0000E+00   4.9748E-13  7.5310E-13   1.0107E-11  8.5601E-12   
1.00E+07  0.172  1.133   0.0000E+00  0.0000E+00   0.0000E+00  0.0000E+00   3.4892E-11  5.7303E-11   2.9235E-10  2.7121E-10   
1.00E+07  0.259  1.021   0.0000E+00  0.0000E+00   0.0000E+00  0.0000E+00   4.3726E-09  8.3997E-09   1.4320E-08  1.7807E-08   
1.00E+07  0.431  0.698   0.0000E+00  0.0000E+00   0.0000E+00  0.0000E+00   6.7750E-07  1.7604E-06   9.1512E-07  1.5464E-06   
1.00E+07  0.862  0.196   0.0000E+00  0.0000E+00   0.0000E+00  0.0000E+00   2.3277E-04  1.0648E-03   8.2452E-05  2.4507E-04   
1.00E+07  2.585  0.021   0.0000E+00  0.0000E+00   0.0000E+00  0.0000E+00   3.6843E-01  4.8000E+00   8.2763E-03  3.1320E-02   
1.00E+08  0.001  2.447   0.0000E+00  0.0000E+00   0.0000E+00  0.0000E+00   0.0000E+00  0.0000E+00   0.0000E+00  0.0000E+00   
1.00E+08  0.009  2.447   0.0000E+00  0.0000E+00   0.0000E+00  0.0000E+00   3.3637E-159 4.0808E-159  2.5415E-142 1.7164E-142  
1.00E+08  0.017  2.446   0.0000E+00  0.0000E+00   0.0000E+00  0.0000E+00   6.4667E-84  7.9636E-84   3.5994E-74  2.4438E-74   
1.00E+08  0.034  2.445   0.0000E+00  0.0000E+00   0.0000E+00  0.0000E+00   5.8754E-46  7.4526E-46   6.1426E-40  4.3325E-40   
1.00E+08  0.060  2.442   0.0000E+00  0.0000E+00   0.0000E+00  0.0000E+00   2.0119E-29  2.6724E-29   4.4491E-25  3.2950E-25   
1.00E+08  0.086  2.437   0.0000E+00  0.0000E+00   0.0000E+00  0.0000E+00   1.1647E-22  1.6236E-22   4.4337E-19  3.4217E-19   
1.00E+08  0.129  2.424   0.0000E+00  0.0000E+00   0.0000E+00  0.0000E+00   3.1093E-17  4.7070E-17   2.3248E-14  1.9607E-14   
1.00E+08  0.172  2.406   0.0000E+00  0.0000E+00   0.0000E+00  0.0000E+00   2.1668E-14  3.5584E-14   6.1411E-12  5.7572E-12   
1.00E+08  0.259  2.355   0.0000E+00  0.0000E+00   0.0000E+00  0.0000E+00   2.5171E-11  4.8349E-11   2.1290E-09  2.4124E-09   
1.00E+08  0.431  2.192   0.0000E+00  0.0000E+00   0.0000E+00  0.0000E+00   2.1254E-08  5.5153E-08   3.8563E-07  5.6518E-07   
1.00E+08  0.862  1.493   0.0000E+00  0.0000E+00   0.0000E+00  0.0000E+00   5.2427E-05  2.3925E-04   6.8369E-05  2.0128E-04   
1.00E+08  2.585  0.209   0.0000E+00  0.0000E+00   0.0000E+00  0.0000E+00   3.4311E-01  4.4680E+00   8.1608E-03  3.0833E-02   
1.00E+09  0.001  5.181   0.0000E+00  0.0000E+00   0.0000E+00  0.0000E+00   0.0000E+00  0.0000E+00   0.0000E+00  0.0000E+00   
1.00E+09  0.009  5.180   0.0000E+00  0.0000E+00   0.0000E+00  0.0000E+00   5.6330E-297 6.8339E-297  1.0082E-238 5.5220E-240  
1.00E+09  0.017  5.180   0.0000E+00  0.0000E+00   0.0000E+00  0.0000E+00   8.3244E-153 1.0251E-152  2.3366E-123 1.8033E-124  
1.00E+09  0.034  5.180   0.0000E+00  0.0000E+00   0.0000E+00  0.0000E+00   2.0667E-80  2.6216E-80   2.3430E-65  2.9231E-66   
1.00E+09  0.060  5.178   0.0000E+00  0.0000E+00   0.0000E+00  0.0000E+00   4.0065E-49  5.3218E-49   3.3050E-40  6.6628E-41   
1.00E+09  0.086  5.176   0.0000E+00  0.0000E+00   0.0000E+00  0.0000E+00   1.8262E-36  2.5457E-36   5.6643E-30  1.6339E-30   
1.00E+09  0.129  5.170   0.0000E+00  0.0000E+00   0.0000E+00  0.0000E+00   1.8474E-26  2.7966E-26   8.3051E-22  3.6917E-22   
1.00E+09  0.172  5.161   0.0000E+00  0.0000E+00   0.0000E+00  0.0000E+00   2.4665E-21  4.0506E-21   1.3791E-17  8.1203E-18   
1.00E+09  0.259  5.138   0.0000E+00  0.0000E+00   0.0000E+00  0.0000E+00   5.3176E-16  1.0214E-15   3.4364E-13  3.0229E-13   
1.00E+09  0.431  5.062   0.0000E+00  0.0000E+00   0.0000E+00  0.0000E+00   2.7195E-11  7.0567E-11   3.1699E-09  5.6106E-09   
1.00E+09  0.862  4.708   0.0000E+00  0.0000E+00   0.0000E+00  0.0000E+00   1.2630E-06  5.7593E-06   1.7896E-05  5.0475E-05   
1.00E+09  2.585  1.972   0.0000E+00  0.0000E+00   0.0000E+00  0.0000E+00   1.7523E-01  2.2746E+00   6.8735E-03  2.5495E-02   
1.00E+10  0.001  11.119  0.0000E+00  0.0000E+00   0.0000E+00  0.0000E+00   0.0000E+00  0.0000E+00   0.0000E+00  0.0000E+00   
1.00E+10  0.009  11.118  0.0000E+00  0.0000E+00   0.0000E+00  0.0000E+00   0.0000E+00  0.0000E+00   0.0000E+00  0.0000E+00   
1.00E+10  0.017  11.118  0.0000E+00  0.0000E+00   0.0000E+00  0.0000E+00   1.9583E-302 2.4115E-302  2.3670E-272 1.5358E-273  
1.00E+10  0.034  11.118  0.0000E+00  0.0000E+00   0.0000E+00  0.0000E+00   3.1414E-155 3.9848E-155  9.7546E-140 1.1454E-140  
1.00E+10  0.060  11.117  0.0000E+00  0.0000E+00   0.0000E+00  0.0000E+00   6.9744E-92  9.2639E-92   1.4559E-82  2.9021E-83   
1.00E+10  0.086  11.116  0.0000E+00  0.0000E+00   0.0000E+00  0.0000E+00   2.1064E-66  2.9363E-66   1.6127E-59  4.5249E-60   
1.00E+10  0.129  11.113  0.0000E+00  0.0000E+00   0.0000E+00  0.0000E+00   1.9825E-46  3.0012E-46   1.9882E-41  8.2446E-42   
1.00E+10  0.172  11.109  0.0000E+00  0.0000E+00   0.0000E+00  0.0000E+00   2.5344E-36  4.1621E-36   2.8586E-32  1.5717E-32   
1.00E+10  0.259  11.098  0.0000E+00  0.0000E+00   0.0000E+00  0.0000E+00   5.1553E-26  9.9024E-26   6.0384E-23  5.0248E-23   
1.00E+10  0.431  11.063  0.0000E+00  0.0000E+00   0.0000E+00  0.0000E+00   2.4292E-17  6.3034E-17   3.4555E-15  4.8304E-15   
1.00E+10  0.862  10.898  0.0000E+00  0.0000E+00   0.0000E+00  0.0000E+00   9.5842E-10  4.3703E-09   6.1150E-09  1.5130E-08   
1.00E+10  2.585  9.163   0.0000E+00  0.0000E+00   0.0000E+00  0.0000E+00   1.0975E-02  1.4198E-01   3.0600E-04  1.2641E-03   
1.00E+11  0.001  23.934  0.0000E+00  0.0000E+00   0.0000E+00  0.0000E+00   0.0000E+00  0.0000E+00   0.0000E+00  0.0000E+00   
1.00E+11  0.009  23.934  0.0000E+00  0.0000E+00   0.0000E+00  0.0000E+00   0.0000E+00  0.0000E+00   0.0000E+00  0.0000E+00   
1.00E+11  0.017  23.933  0.0000E+00  0.0000E+00   0.0000E+00  0.0000E+00   0.0000E+00  0.0000E+00   0.0000E+00  0.0000E+00   
1.00E+11  0.034  23.934  0.0000E+00  0.0000E+00   0.0000E+00  0.0000E+00   9.7494E-318 1.1770E-317  0.0000E+00  0.0000E+00   
1.00E+11  0.060  23.933  0.0000E+00  0.0000E+00   0.0000E+00  0.0000E+00   3.7350E-184 4.9611E-184  0.0000E+00  0.0000E+00   
1.00E+11  0.086  23.933  0.0000E+00  0.0000E+00   0.0000E+00  0.0000E+00   5.3784E-131 7.4975E-131  0.0000E+00  0.0000E+00   
1.00E+11  0.129  23.931  0.0000E+00  0.0000E+00   0.0000E+00  0.0000E+00   1.6996E-89  2.5729E-89   0.0000E+00  0.0000E+00   
1.00E+11  0.172  23.930  0.0000E+00  0.0000E+00   0.0000E+00  0.0000E+00   1.2547E-68  2.0605E-68   0.0000E+00  0.0000E+00   
1.00E+11  0.259  23.924  0.0000E+00  0.0000E+00   0.0000E+00  0.0000E+00   1.4637E-47  2.8115E-47   0.0000E+00  0.0000E+00   
1.00E+11  0.431  23.908  0.0000E+00  0.0000E+00   0.0000E+00  0.0000E+00   2.7440E-30  7.1201E-30   0.0000E+00  0.0000E+00   
1.00E+11  0.862  23.832  0.0000E+00  0.0000E+00   0.0000E+00  0.0000E+00   2.9072E-16  1.3256E-15   0.0000E+00  0.0000E+00   
1.00E+11  2.585  23.015  0.0000E+00  0.0000E+00   0.0000E+00  0.0000E+00   5.1714E-05  6.6881E-04   0.0000E+00  0.0000E+00   
