rhoYe is density times electron fraction [g/cm^3], T is temperature [MeV], mu_e is electron chemical potential [MeV]
e-(+) cap is electron (positron) capture, e-(+) dec is electron (positron) decay
For each process, first column is neutrino production [neutrinos/baryon second] and second column is energy loss [MeV/baryon second].
rhoYe     T      mu_e    e- cap                   e+ dec                   e+ cap                   e- dec                   
1.00E+01  0.001  0.509   0.0000E+00  0.0000E+00   0.0000E+00  0.0000E+00   0.0000E+00  0.0000E+00   1.6426E-03  4.4947E-03   
1.00E+01  0.009  0.453   0.0000E+00  0.0000E+00   0.0000E+00  0.0000E+00   5.1497E-57  2.3948E-56   1.6426E-03  4.4947E-03   
1.00E+01  0.017  0.377   0.0000E+00  0.0000E+00   0.0000E+00  0.0000E+00   4.5436E-30  2.1146E-29   1.6426E-03  4.4947E-03   
1.00E+01  0.034  0.205   0.0000E+00  0.0000E+00   0.0000E+00  0.0000E+00   4.7009E-16  2.1911E-15   1.6426E-03  4.4946E-03   
1.00E+01  0.060  0.008   0.0000E+00  0.0000E+00   0.0000E+00  0.0000E+00   2.9600E-10  1.3822E-09   1.6394E-03  4.4855E-03   
1.00E+01  0.086  0.000   0.0000E+00  0.0000E+00   0.0000E+00  0.0000E+00   9.1222E-09  4.2581E-08   1.6198E-03  4.4287E-03   
1.00E+01  0.129  0.000   0.0000E+00  0.0000E+00   0.0000E+00  0.0000E+00   1.5952E-07  7.3938E-07   1.5416E-03  4.2030E-03   
1.00E+01  0.172  0.000   0.0000E+00  0.0000E+00   0.0000E+00  0.0000E+00   8.1662E-07  3.7482E-06   1.4416E-03  3.9149E-03   
1.00E+01  0.259  0.000   0.0000E+00  0.0000E+00   0.0000E+00  0.0000E+00   5.8318E-06  2.6534E-05   1.2882E-03  3.4877E-03   
1.00E+01  0.431  0.000   0.0000E+00  0.0000E+00   0.0000E+00  0.0000E+00   5.5265E-05  2.6334E-04   1.2724E-03  3.5771E-03   
1.00E+01  0.862  0.000   0.0000E+00  0.0000E+00   0.0000E+00  0.0000E+00   1.4612E-03  8.9429E-03   2.9529E-03  1.0743E-02   
1.00E+01  2.585  0.000   0.0000E+00  0.0000E+00   0.0000E+00  0.0000E+00   4.6264E-01  6.9590E+00   4.4064E-02  1.9724E-01   
1.00E+01  0.001  0.509   0.0000E+00  0.0000E+00   0.0000E+00  0.0000E+00   0.0000E+00  0.0000E+00   1.6426E-03  4.4947E-03   
1.00E+01  0.009  0.453   0.0000E+00  0.0000E+00   0.0000E+00  0.0000E+00   5.1497E-57  2.3948E-56   1.6426E-03  4.4947E-03   
1.00E+01  0.017  0.377   0.0000E+00  0.0000E+00   0.0000E+00  0.0000E+00   4.5436E-30  2.1146E-29   1.6426E-03  4.4947E-03   
1.00E+01  0.034  0.205   0.0000E+00  0.0000E+00   0.0000E+00  0.0000E+00   4.7009E-16  2.1911E-15   1.6426E-03  4.4946E-03   
1.00E+01  0.060  0.008   0.0000E+00  0.0000E+00   0.0000E+00  0.0000E+00   2.9600E-10  1.3822E-09   1.6394E-03  4.4855E-03   
1.00E+01  0.086  0.000   0.0000E+00  0.0000E+00   0.0000E+00  0.0000E+00   9.1222E-09  4.2581E-08   1.6198E-03  4.4287E-03   
1.00E+01  0.129  0.000   0.0000E+00  0.0000E+00   0.0000E+00  0.0000E+00   1.5952E-07  7.3938E-07   1.5416E-03  4.2030E-03   
1.00E+01  0.172  0.000   0.0000E+00  0.0000E+00   0.0000E+00  0.0000E+00   8.1662E-07  3.7482E-06   1.4416E-03  3.9149E-03   
1.00E+01  0.259  0.000   0.0000E+00  0.0000E+00   0.0000E+00  0.0000E+00   5.8318E-06  2.6534E-05   1.2882E-03  3.4877E-03   
1.00E+01  0.431  0.000   0.0000E+00  0.0000E+00   0.0000E+00  0.0000E+00   5.5265E-05  2.6334E-04   1.2724E-03  3.5771E-03   
1.00E+01  0.862  0.000   0.0000E+00  0.0000E+00   0.0000E+00  0.0000E+00   1.4612E-03  8.9429E-03   2.9529E-03  1.0743E-02   
1.00E+01  2.585  0.000   0.0000E+00  0.0000E+00   0.0000E+00  0.0000E+00   4.6264E-01  6.9590E+00   4.4064E-02  1.9724E-01   
1.00E+02  0.001  0.511   0.0000E+00  0.0000E+00   0.0000E+00  0.0000E+00   0.0000E+00  0.0000E+00   1.6426E-03  4.4946E-03   
1.00E+02  0.009  0.473   0.0000E+00  0.0000E+00   0.0000E+00  0.0000E+00   5.1273E-58  2.3843E-57   1.6426E-03  4.4947E-03   
1.00E+02  0.017  0.416   0.0000E+00  0.0000E+00   0.0000E+00  0.0000E+00   4.5380E-31  2.1119E-30   1.6426E-03  4.4947E-03   
1.00E+02  0.034  0.284   0.0000E+00  0.0000E+00   0.0000E+00  0.0000E+00   4.6990E-17  2.1902E-16   1.6426E-03  4.4946E-03   
1.00E+02  0.060  0.065   0.0000E+00  0.0000E+00   0.0000E+00  0.0000E+00   1.1433E-10  5.3387E-10   1.6394E-03  4.4855E-03   
1.00E+02  0.086  0.005   0.0000E+00  0.0000E+00   0.0000E+00  0.0000E+00   8.6782E-09  4.0509E-08   1.6198E-03  4.4287E-03   
1.00E+02  0.129  0.000   0.0000E+00  0.0000E+00   0.0000E+00  0.0000E+00   1.5899E-07  7.3692E-07   1.5416E-03  4.2030E-03   
1.00E+02  0.172  0.000   0.0000E+00  0.0000E+00   0.0000E+00  0.0000E+00   8.1603E-07  3.7455E-06   1.4416E-03  3.9148E-03   
1.00E+02  0.259  0.000   0.0000E+00  0.0000E+00   0.0000E+00  0.0000E+00   5.8311E-06  2.6531E-05   1.2882E-03  3.4877E-03   
1.00E+02  0.431  0.000   0.0000E+00  0.0000E+00   0.0000E+00  0.0000E+00   5.5264E-05  2.6333E-04   1.2724E-03  3.5771E-03   
1.00E+02  0.862  0.000   0.0000E+00  0.0000E+00   0.0000E+00  0.0000E+00   1.4612E-03  8.9429E-03   2.9529E-03  1.0743E-02   
1.00E+02  2.585  0.000   0.0000E+00  0.0000E+00   0.0000E+00  0.0000E+00   4.6264E-01  6.9590E+00   4.4064E-02  1.9724E-01   
1.00E+01  0.001  0.509   0.0000E+00  0.0000E+00   0.0000E+00  0.0000E+00   0.0000E+00  0.0000E+00   1.6426E-03  4.4947E-03   
1.00E+01  0.009  0.453   0.0000E+00  0.0000E+00   0.0000E+00  0.0000E+00   5.1497E-57  2.3948E-56   1.6426E-03  4.4947E-03   
1.00E+01  0.017  0.377   0.0000E+00  0.0000E+00   0.0000E+00  0.0000E+00   4.5436E-30  2.1146E-29   1.6426E-03  4.4947E-03   
1.00E+01  0.034  0.205   0.0000E+00  0.0000E+00   0.0000E+00  0.0000E+00   4.7009E-16  2.1911E-15   1.6426E-03  4.4946E-03   
1.00E+01  0.060  0.008   0.0000E+00  0.0000E+00   0.0000E+00  0.0000E+00   2.9600E-10  1.3822E-09   1.6394E-03  4.4855E-03   
1.00E+01  0.086  0.000   0.0000E+00  0.0000E+00   0.0000E+00  0.0000E+00   9.1222E-09  4.2581E-08   1.6198E-03  4.4287E-03   
1.00E+01  0.129  0.000   0.0000E+00  0.0000E+00   0.0000E+00  0.0000E+00   1.5952E-07  7.3938E-07   1.5416E-03  4.2030E-03   
1.00E+01  0.172  0.000   0.0000E+00  0.0000E+00   0.0000E+00  0.0000E+00   8.1662E-07  3.7482E-06   1.4416E-03  3.9149E-03   
1.00E+01  0.259  0.000   0.0000E+00  0.0000E+00   0.0000E+00  0.0000E+00   5.8318E-06  2.6534E-05   1.2882E-03  3.4877E-03   
1.00E+01  0.431  0.000   0.0000E+00  0.0000E+00   0.0000E+00  0.0000E+00   5.5265E-05  2.6334E-04   1.2724E-03  3.5771E-03   
1.00E+01  0.862  0.000   0.0000E+00  0.0000E+00   0.0000E+00  0.0000E+00   1.4612E-03  8.9429E-03   2.9529E-03  1.0743E-02   
1.00E+01  2.585  0.000   0.0000E+00  0.0000E+00   0.0000E+00  0.0000E+00   4.6264E-01  6.9590E+00   4.4064E-02  1.9724E-01   
1.00E+02  0.001  0.511   0.0000E+00  0.0000E+00   0.0000E+00  0.0000E+00   0.0000E+00  0.0000E+00   1.6426E-03  4.4946E-03   
1.00E+02  0.009  0.473   0.0000E+00  0.0000E+00   0.0000E+00  0.0000E+00   5.1273E-58  2.3843E-57   1.6426E-03  4.4947E-03   
1.00E+02  0.017  0.416   0.0000E+00  0.0000E+00   0.0000E+00  0.0000E+00   4.5380E-31  2.1119E-30   1.6426E-03  4.4947E-03   
1.00E+02  0.034  0.284   0.0000E+00  0.0000E+00   0.0000E+00  0.0000E+00   4.6990E-17  2.1902E-16   1.6426E-03  4.4946E-03   
1.00E+02  0.060  0.065   0.0000E+00  0.0000E+00   0.0000E+00  0.0000E+00   1.1433E-10  5.3387E-10   1.6394E-03  4.4855E-03   
1.00E+02  0.086  0.005   0.0000E+00  0.0000E+00   0.0000E+00  0.0000E+00   8.6782E-09  4.0509E-08   1.6198E-03  4.4287E-03   
1.00E+02  0.129  0.000   0.0000E+00  0.0000E+00   0.0000E+00  0.0000E+00   1.5899E-07  7.3692E-07   1.5416E-03  4.2030E-03   
1.00E+02  0.172  0.000   0.0000E+00  0.0000E+00   0.0000E+00  0.0000E+00   8.1603E-07  3.7455E-06   1.4416E-03  3.9148E-03   
1.00E+02  0.259  0.000   0.0000E+00  0.0000E+00   0.0000E+00  0.0000E+00   5.8311E-06  2.6531E-05   1.2882E-03  3.4877E-03   
1.00E+02  0.431  0.000   0.0000E+00  0.0000E+00   0.0000E+00  0.0000E+00   5.5264E-05  2.6333E-04   1.2724E-03  3.5771E-03   
1.00E+02  0.862  0.000   0.0000E+00  0.0000E+00   0.0000E+00  0.0000E+00   1.4612E-03  8.9429E-03   2.9529E-03  1.0743E-02   
1.00E+02  2.585  0.000   0.0000E+00  0.0000E+00   0.0000E+00  0.0000E+00   4.6264E-01  6.9590E+00   4.4064E-02  1.9724E-01   
1.00E+03  0.001  0.513   0.0000E+00  0.0000E+00   0.0000E+00  0.0000E+00   0.0000E+00  0.0000E+00   1.6425E-03  4.4943E-03   
1.00E+03  0.009  0.493   0.0000E+00  0.0000E+00 1.00E+01  0.001  0.509   0.0000E+00  0.0000E+00   0.0000E+00  0.0000E+00   0.0000E+00  0.0000E+00   1.6426E-03  4.4947E-03   
1.00E+01  0.009  0.453   0.0000E+00  0.0000E+00   0.0000E+00  0.0000E+00   5.1497E-57  2.3948E-56   1.6426E-03  4.4947E-03   
1.00E+01  0.017  0.377   0.0000E+00  0.0000E+00   0.0000E+00  0.0000E+00   4.5436E-30  2.1146E-29   1.6426E-03  4.4947E-03   
1.00E+01  0.034  0.205   0.0000E+00  0.0000E+00   0.0000E+00  0.0000E+00   4.7009E-16  2.1911E-15   1.6426E-03  4.4946E-03   
1.00E+01  0.060  0.008   0.0000E+00  0.0000E+00   0.0000E+00  0.0000E+00   2.9600E-10  1.3822E-09   1.6394E-03  4.4855E-03   
1.00E+01  0.086  0.000   0.0000E+00  0.0000E+00   0.0000E+00  0.0000E+00   9.1222E-09  4.2581E-08   1.6198E-03  4.4287E-03   
1.00E+01  0.129  0.000   0.0000E+00  0.0000E+00   0.0000E+00  0.0000E+00   1.5952E-07  7.3938E-07   1.5416E-03  4.2030E-03   
1.00E+01  0.172  0.000   0.0000E+00  0.0000E+00   0.0000E+00  0.0000E+00   8.1662E-07  3.7482E-06   1.4416E-03  3.9149E-03   
1.00E+01  0.259  0.000   0.0000E+00  0.0000E+00   0.0000E+00  0.0000E+00   5.8318E-06  2.6534E-05   1.2882E-03  3.4877E-03   
1.00E+01  0.431  0.000   0.0000E+00  0.0000E+00   0.0000E+00  0.0000E+00   5.5265E-05  2.6334E-04   1.2724E-03  3.5771E-03   
1.00E+01  0.862  0.000   0.0000E+00  0.0000E+00   0.0000E+00  0.0000E+00   1.4612E-03  8.9429E-03   2.9529E-03  1.0743E-02   
1.00E+01  2.585  0.000   0.0000E+00  0.0000E+00   0.0000E+00  0.0000E+00   4.6264E-01  6.9590E+00   4.4064E-02  1.9724E-01   
1.00E+02  0.001  0.511   0.0000E+00  0.0000E+00   0.0000E+00  0.0000E+00   0.0000E+00  0.0000E+00   1.6426E-03  4.4946E-03   
1.00E+02  0.009  0.473   0.0000E+00  0.0000E+00   0.0000E+00  0.0000E+00   5.1273E-58  2.3843E-57   1.6426E-03  4.4947E-03   
1.00E+02  0.017  0.416   0.0000E+00  0.0000E+00   0.0000E+00  0.0000E+00   4.5380E-31  2.1119E-30   1.6426E-03  4.4947E-03   
1.00E+02  0.034  0.284   0.0000E+00  0.0000E+00   0.0000E+00  0.0000E+00   4.6990E-17  2.1902E-16   1.6426E-03  4.4946E-03   
1.00E+02  0.060  0.065   0.0000E+00  0.0000E+00   0.0000E+00  0.0000E+00   1.1433E-10  5.3387E-10   1.6394E-03  4.4855E-03   
1.00E+02  0.086  0.005   0.0000E+00  0.0000E+00   0.0000E+00  0.0000E+00   8.6782E-09  4.0509E-08   1.6198E-03  4.4287E-03   
1.00E+02  0.129  0.000   0.0000E+00  0.0000E+00   0.0000E+00  0.0000E+00   1.5899E-07  7.3692E-07   1.5416E-03  4.2030E-03   
1.00E+02  0.172  0.000   0.0000E+00  0.0000E+00   0.0000E+00  0.0000E+00   8.1603E-07  3.7455E-06   1.4416E-03  3.9148E-03   
1.00E+02  0.259  0.000   0.0000E+00  0.0000E+00   0.0000E+00  0.0000E+00   5.8311E-06  2.6531E-05   1.2882E-03  3.4877E-03   
1.00E+02  0.431  0.000   0.0000E+00  0.0000E+00   0.0000E+00  0.0000E+00   5.5264E-05  2.6333E-04   1.2724E-03  3.5771E-03   
1.00E+02  0.862  0.000   0.0000E+00  0.0000E+00   0.0000E+00  0.0000E+00   1.4612E-03  8.9429E-03   2.9529E-03  1.0743E-02   
1.00E+02  2.585  0.000   0.0000E+00  0.0000E+00   0.0000E+00  0.0000E+00   4.6264E-01  6.9590E+00   4.4064E-02  1.9724E-01   
1.00E+03  0.001  0.513   0.0000E+00  0.0000E+00   0.0000E+00  0.0000E+00   0.0000E+00  0.0000E+00   1.6425E-03  4.4943E-03   
1.00E+03  0.009  0.493   0.0000E+00  0.0000E+00 1.00E+01  0.001  0.509   0.0000E+00  0.0000E+00   0.0000E+00  0.0000E+00   0.0000E+00  0.0000E+00   1.6426E-03  4.4947E-03   
1.00E+03  0.009  0.493   0.0000E+00  0.0000E+00   0.0000E+00  0.0000E+00   4.9067E-59  2.2818E-58   1.6426E-03  4.4945E-03   
1.00E+03  0.017  0.456   0.0000E+00  0.0000E+00   0.0000E+00  0.0000E+00   4.4823E-32  2.0860E-31   1.6426E-03  4.4945E-03   
1.00E+03  0.034  0.364   0.0000E+00  0.0000E+00   0.0000E+00  0.0000E+00   4.6795E-18  2.1811E-17   1.6426E-03  4.4945E-03   
1.00E+03  0.060  0.197   0.0000E+00  0.0000E+00   0.0000E+00  0.0000E+00   1.2880E-11  6.0144E-11   1.6394E-03  4.4854E-03   
1.00E+03  0.086  0.046   0.0000E+00  0.0000E+00   0.0000E+00  0.0000E+00   5.4006E-09  2.5209E-08   1.6197E-03  4.4287E-03   
1.00E+03  0.129  0.005   0.0000E+00  0.0000E+00   0.0000E+00  0.0000E+00   1.5378E-07  7.1280E-07   1.5416E-03  4.2030E-03   
1.00E+03  0.172  0.001   0.0000E+00  0.0000E+00   0.0000E+00  0.0000E+00   8.1016E-07  3.7186E-06   1.4416E-03  3.9148E-03   
1.00E+03  0.259  0.000   0.0000E+00  0.0000E+00   0.0000E+00  0.0000E+00   5.8241E-06  2.6499E-05   1.2882E-03  3.4877E-03   
1.00E+03  0.431  0.000   0.0000E+00  0.0000E+00   0.0000E+00  0.0000E+00   5.5254E-05  2.6328E-04   1.2724E-03  3.5771E-03   
1.00E+03  0.862  0.000   0.0000E+00  0.0000E+00   0.0000E+00  0.0000E+00   1.4612E-03  8.9427E-03   2.9529E-03  1.0743E-02   
1.00E+03  2.585  0.000   0.0000E+00  0.0000E+00   0.0000E+00  0.0000E+00   4.6263E-01  6.9590E+00   4.4064E-02  1.9724E-01   
1.00E+04  0.001  0.523   0.0000E+00  0.0000E+00   0.0000E+00  0.0000E+00   0.0000E+00  0.0000E+00   1.6420E-03  4.4923E-03   
1.00E+04  0.009  0.516   0.0000E+00  0.0000E+00   0.0000E+00  0.0000E+00   3.5748E-60  1.6624E-59   1.6422E-03  4.4929E-03   
1.00E+04  0.017  0.498   0.0000E+00  0.0000E+00   0.0000E+00  0.0000E+00   3.9744E-33  1.8497E-32   1.6423E-03  4.4933E-03   
1.00E+04  0.034  0.444   0.0000E+00  0.0000E+00   0.0000E+00  0.0000E+00   4.4900E-19  2.0928E-18   1.6423E-03  4.4935E-03   
1.00E+04  0.060  0.337   0.0000E+00  0.0000E+00   0.0000E+00  0.0000E+00   1.2698E-12  5.9296E-12   1.6392E-03  4.4846E-03   
1.00E+04  0.086  0.209   0.0000E+00  0.0000E+00   0.0000E+00  0.0000E+00   8.1411E-10  3.8002E-09   1.6196E-03  4.4280E-03   
1.00E+04  0.129  0.047   0.0000E+00  0.0000E+00   0.0000E+00  0.0000E+00   1.1108E-07  5.1487E-07   1.5415E-03  4.2026E-03   
1.00E+04  0.172  0.014   0.0000E+00  0.0000E+00   0.0000E+00  0.0000E+00   7.5383E-07  3.4600E-06   1.4415E-03  3.9146E-03   
1.00E+04  0.259  0.004   0.0000E+00  0.0000E+00   0.0000E+00  0.0000E+00   5.7542E-06  2.6181E-05   1.2882E-03  3.4875E-03   
1.00E+04  0.431  0.001   0.0000E+00  0.0000E+00   0.0000E+00  0.0000E+00   5.5152E-05  2.6279E-04   1.2723E-03  3.5770E-03   
1.00E+04  0.862  0.000   0.0000E+00  0.0000E+00   0.0000E+00  0.0000E+00   1.4609E-03  8.9409E-03   2.9529E-03  1.0743E-02   
1.00E+04  2.585  0.000   0.0000E+00  0.0000E+00   0.0000E+00  0.0000E+00   4.6263E-01  6.9589E+00   4.4064E-02  1.9724E-01   
1.00E+05  0.001  0.565   0.0000E+00  0.0000E+00   0.0000E+00  0.0000E+00   0.0000E+00  0.0000E+00   1.6397E-03  4.4825E-03   
1.00E+05  0.009  0.563   0.0000E+00  0.0000E+00   0.0000E+00  0.0000E+00   1.5710E-62  7.3059E-62   1.6398E-03  4.4829E-03   
1.00E+05  0.017  0.558   0.0000E+00  0.0000E+00   0.0000E+00  0.0000E+00   1.2371E-34  5.7575E-34   1.6399E-03  4.4834E-03   
1.00E+05  0.034  0.537   0.0000E+00  0.0000E+00   0.0000E+00  0.0000E+00   3.0306E-20  1.4125E-19   1.6402E-03  4.4846E-03   
1.00E+05  0.060  0.485   0.0000E+00  0.0000E+00   0.0000E+00  0.0000E+00   1.0900E-13  5.0900E-13   1.6374E-03  4.4769E-03   
1.00E+05  0.086  0.413   0.0000E+00  0.0000E+00   0.0000E+00  0.0000E+00   7.5751E-11  3.5359E-10   1.6179E-03  4.4212E-03   
1.00E+05  0.129  0.265   0.0000E+00  0.0000E+00   0.0000E+00  0.0000E+00   2.0566E-08  9.5323E-08   1.5402E-03  4.1974E-03   
1.00E+05  0.172  0.128   0.0000E+00  0.0000E+00   0.0000E+00  0.0000E+00   3.8982E-07  1.7892E-06   1.4407E-03  3.9113E-03   
1.00E+05  0.259  0.035   0.0000E+00  0.0000E+00   0.0000E+00  0.0000E+00   5.1007E-06  2.3206E-05   1.2877E-03  3.4856E-03   
1.00E+05  0.431  0.009   0.0000E+00  0.0000E+00   0.0000E+00  0.0000E+00   5.4141E-05  2.5797E-04   1.2720E-03  3.5758E-03   
1.00E+05  0.862  0.002   0.0000E+00  0.0000E+00   0.0000E+00  0.0000E+00   1.4580E-03  8.9231E-03   2.9527E-03  1.0742E-02   
1.00E+05  2.585  0.000   0.0000E+00  0.0000E+00   0.0000E+00  0.0000E+00   4.6260E-01  6.9584E+00   4.4063E-02  1.9724E-01   
1.00E+06  0.001  0.726   0.0000E+00  0.0000E+00   0.0000E+00  0.0000E+00   0.0000E+00  0.0000E+00   1.6248E-03  4.4203E-03   
1.00E+06  0.009  0.725   0.0000E+00  0.0000E+00   0.0000E+00  0.0000E+00   1.0444E-70  4.8569E-70   1.6250E-03  4.4209E-03   
1.00E+06  0.017  0.724   0.0000E+00  0.0000E+00   0.0000E+00  0.0000E+00   8.1078E-39  3.7733E-38   1.6250E-03  4.4209E-03   
1.00E+06  0.034  0.718   0.0000E+00  0.0000E+00   0.0000E+00  0.0000E+00   1.6137E-22  7.5214E-22   1.6252E-03  4.4219E-03   
1.00E+06  0.060  0.700   0.0000E+00  0.0000E+00   0.0000E+00  0.0000E+00   3.0732E-15  1.4351E-14   1.6226E-03  4.4153E-03   
1.00E+06  0.086  0.672   0.0000E+00  0.0000E+00   0.0000E+00  0.0000E+00   3.7654E-12  1.7576E-11   1.6038E-03  4.3625E-03   
1.00E+06  0.129  0.604   0.0000E+00  0.0000E+00   0.0000E+00  0.0000E+00   1.5005E-09  6.9549E-09   1.5274E-03  4.1454E-03   
1.00E+06  0.172  0.512   0.0000E+00  0.0000E+00   0.0000E+00  0.0000E+00   4.2266E-08  1.9398E-07   1.4297E-03  3.8675E-03   
1.00E+06  0.259  0.299   0.0000E+00  0.0000E+00   0.0000E+00  0.0000E+00   1.8662E-06  8.4878E-06   1.2808E-03  3.4594E-03   
1.00E+06  0.431  0.091   0.0000E+00  0.0000E+00   0.0000E+00  0.0000E+00   4.5025E-05  2.1445E-04   1.2686E-03  3.5632E-03   
1.00E+06  0.862  0.020   0.0000E+00  0.0000E+00   0.0000E+00  0.0000E+00   1.4293E-03  8.7469E-03   2.9502E-03  1.0731E-02   
1.00E+06  2.585  0.002   0.0000E+00  0.0000E+00   0.0000E+00  0.0000E+00   4.6227E-01  6.9535E+00   4.4058E-02  1.9722E-01   
1.00E+07  0.001  1.223   0.0000E+00  0.0000E+00   0.0000E+00  0.0000E+00   0.0000E+00  0.0000E+00   1.5224E-03  4.0125E-03   
1.00E+07  0.009  1.222   0.0000E+00  0.0000E+00   0.0000E+00  0.0000E+00   9.1484E-96  4.2543E-95   1.5226E-03  4.0134E-03   
1.00E+07  0.017  1.222   0.0000E+00  0.0000E+00   0.0000E+00  0.0000E+00   2.3381E-51  1.0882E-50   1.5227E-03  4.0137E-03   
1.00E+07  0.034  1.219   0.0000E+00  0.0000E+00   0.0000E+00  0.0000E+00   7.7794E-29  3.6260E-28   1.5229E-03  4.0149E-03   
1.00E+07  0.060  1.212   0.0000E+00  0.0000E+00   0.0000E+00  0.0000E+00   6.3653E-19  2.9724E-18   1.5207E-03  4.0104E-03   
1.00E+07  0.086  1.200   0.0000E+00  0.0000E+00   0.0000E+00  0.0000E+00   8.1848E-15  3.8205E-14   1.5033E-03  3.9644E-03   
1.00E+07  0.129  1.173   0.0000E+00  0.0000E+00   0.0000E+00  0.0000E+00   1.8420E-11  8.5376E-11   1.4321E-03  3.7722E-03   
1.00E+07  0.172  1.133   0.0000E+00  0.0000E+00   0.0000E+00  0.0000E+00   1.1505E-09  5.2800E-09   1.3411E-03  3.5269E-03   
1.00E+07  0.259  1.021   0.0000E+00  0.0000E+00   0.0000E+00  0.0000E+00   1.1485E-07  5.2228E-07   1.2063E-03  3.1820E-03   
1.00E+07  0.431  0.698   0.0000E+00  0.0000E+00   0.0000E+00  0.0000E+00   1.1283E-05  5.3667E-05   1.2205E-03  3.3883E-03   
1.00E+07  0.862  0.196   0.0000E+00  0.0000E+00   0.0000E+00  0.0000E+00   1.1726E-03  7.1704E-03   2.9234E-03  1.0617E-02   
1.00E+07  2.585  0.021   0.0000E+00  0.0000E+00   0.0000E+00  0.0000E+00   4.5903E-01  6.9043E+00   4.4008E-02  1.9696E-01   
1.00E+08  0.001  2.447   0.0000E+00  0.0000E+00   0.0000E+00  0.0000E+00   0.0000E+00  0.0000E+00   9.8367E-04  2.1764E-03   
1.00E+08  0.009  2.447   0.0000E+00  0.0000E+00   0.0000E+00  0.0000E+00   1.7759E-157 8.2585E-157  9.8403E-04  2.1776E-03   
1.00E+08  0.017  2.446   0.0000E+00  0.0000E+00   0.0000E+00  0.0000E+00   3.2377E-82  1.5068E-81   9.8433E-04  2.1786E-03   
1.00E+08  0.034  2.445   0.0000E+00  0.0000E+00   0.0000E+00  0.0000E+00   2.7695E-44  1.2908E-43   9.8477E-04  2.1805E-03   
1.00E+08  0.060  2.442   0.0000E+00  0.0000E+00   0.0000E+00  0.0000E+00   8.8684E-28  4.1413E-27   9.8437E-04  2.1822E-03   
1.00E+08  0.086  2.437   0.0000E+00  0.0000E+00   0.0000E+00  0.0000E+00   4.8198E-21  2.2498E-20   9.7397E-04  2.1626E-03   
1.00E+08  0.129  2.424   0.0000E+00  0.0000E+00   0.0000E+00  0.0000E+00   1.1513E-15  5.3362E-15   9.2847E-04  2.0680E-03   
1.00E+08  0.172  2.406   0.0000E+00  0.0000E+00   0.0000E+00  0.0000E+00   7.1443E-13  3.2788E-12   8.7048E-04  1.9476E-03   
1.00E+08  0.259  2.355   0.0000E+00  0.0000E+00   0.0000E+00  0.0000E+00   6.6122E-10  3.0068E-09   7.9205E-04  1.8095E-03   
1.00E+08  0.431  2.192   0.0000E+00  0.0000E+00   0.0000E+00  0.0000E+00   3.5497E-07  1.6875E-06   8.6042E-04  2.1746E-03   
1.00E+08  0.862  1.493   0.0000E+00  0.0000E+00   0.0000E+00  0.0000E+00   2.6685E-04  1.6268E-03   2.5797E-03  9.1812E-03   
1.00E+08  2.585  0.209   0.0000E+00  0.0000E+00   0.0000E+00  0.0000E+00   4.2782E-01  6.4308E+00   4.3499E-02  1.9434E-01   
1.00E+09  0.001  5.181   0.0000E+00  0.0000E+00   0.0000E+00  0.0000E+00   0.0000E+00  0.0000E+00   1.9667E-05  1.0174E-05   
1.00E+09  0.009  5.180   0.0000E+00  0.0000E+00   0.0000E+00  0.0000E+00   2.9740E-295 1.3830E-294  1.9740E-05  1.0234E-05   
1.00E+09  0.017  5.180   0.0000E+00  0.0000E+00   0.0000E+00  0.0000E+00   4.1678E-151 1.9397E-150  1.9851E-05  1.0341E-05   
1.00E+09  0.034  5.180   0.0000E+00  0.0000E+00   0.0000E+00  0.0000E+00   9.7420E-79  4.5407E-78   2.0158E-05  1.0673E-05   
1.00E+09  0.060  5.178   0.0000E+00  0.0000E+00   0.0000E+00  0.0000E+00   1.7661E-47  8.2470E-47   2.1022E-05  1.1619E-05   
1.00E+09  0.086  5.176   0.0000E+00  0.0000E+00   0.0000E+00  0.0000E+00   7.5573E-35  3.5276E-34   2.2103E-05  1.2956E-05   
1.00E+09  0.129  5.170   0.0000E+00  0.0000E+00   0.0000E+00  0.0000E+00   6.8403E-25  3.1705E-24   2.4021E-05  1.5843E-05   
1.00E+09  0.172  5.161   0.0000E+00  0.0000E+00   0.0000E+00  0.0000E+00   8.1324E-20  3.7323E-19   2.6426E-05  1.9946E-05   
1.00E+09  0.259  5.138   0.0000E+00  0.0000E+00   0.0000E+00  0.0000E+00   1.3969E-14  6.3521E-14   3.6492E-05  3.7948E-05   
1.00E+09  0.431  5.062   0.0000E+00  0.0000E+00   0.0000E+00  0.0000E+00   4.5423E-10  2.1594E-09   9.5521E-05  1.6045E-04   
1.00E+09  0.862  4.708   0.0000E+00  0.0000E+00   0.0000E+00  0.0000E+00   6.4491E-06  3.9280E-05   9.7175E-04  3.0603E-03   
1.00E+09  2.585  1.972   0.0000E+00  0.0000E+00   0.0000E+00  0.0000E+00   2.1972E-01  3.2881E+00   3.7688E-02  1.6501E-01   
1.00E+10  0.001  11.119  0.0000E+00  0.0000E+00   0.0000E+00  0.0000E+00   0.0000E+00  0.0000E+00   0.0000E+00  0.0000E+00   
1.00E+10  0.009  11.118  0.0000E+00  0.0000E+00   0.0000E+00  0.0000E+00   0.0000E+00  0.0000E+00   0.0000E+00  0.0000E+00   
1.00E+10  0.017  11.118  0.0000E+00  0.0000E+00   0.0000E+00  0.0000E+00   9.8044E-301 4.5629E-300  3.2585E-186 4.5987E-186  
1.00E+10  0.034  11.118  0.0000E+00  0.0000E+00   0.0000E+00  0.0000E+00   1.4808E-153 6.9019E-153  3.6482E-96  5.1597E-96   
1.00E+10  0.060  11.117  0.0000E+00  0.0000E+00   0.0000E+00  0.0000E+00   3.0743E-90  1.4356E-89   1.4990E-57  2.1511E-57   
1.00E+10  0.086  11.116  0.0000E+00  0.0000E+00   0.0000E+00  0.0000E+00   8.7168E-65  4.0689E-64   5.8224E-42  8.8849E-42   
1.00E+10  0.129  11.113  0.0000E+00  0.0000E+00   0.0000E+00  0.0000E+00   7.3407E-45  3.4024E-44   1.5830E-29  2.6156E-29   
1.00E+10  0.172  11.109  0.0000E+00  0.0000E+00   0.0000E+00  0.0000E+00   8.3564E-35  3.8351E-34   3.3606E-23  5.6728E-23   
1.00E+10  0.259  11.098  0.0000E+00  0.0000E+00   0.0000E+00  0.0000E+00   1.3542E-24  6.1582E-24   8.3410E-17  1.4325E-16   
1.00E+10  0.431  11.063  0.0000E+00  0.0000E+00   0.0000E+00  0.0000E+00   4.0574E-16  1.9289E-15   1.6339E-11  3.0795E-11   
1.00E+10  0.862  10.898  0.0000E+00  0.0000E+00   0.0000E+00  0.0000E+00   4.8942E-09  2.9809E-08   7.3547E-07  1.9065E-06   
1.00E+10  2.585  9.163   0.0000E+00  0.0000E+00   0.0000E+00  0.0000E+00   1.3848E-02  2.0622E-01   5.9275E-03  2.4973E-02   
1.00E+11  0.001  23.934  0.0000E+00  0.0000E+00   0.0000E+00  0.0000E+00   0.0000E+00  0.0000E+00   0.0000E+00  0.0000E+00   
1.00E+11  0.009  23.934  0.0000E+00  0.0000E+00   0.0000E+00  0.0000E+00   0.0000E+00  0.0000E+00   0.0000E+00  0.0000E+00   
1.00E+11  0.017  23.933  0.0000E+00  0.0000E+00   0.0000E+00  0.0000E+00   0.0000E+00  0.0000E+00   0.0000E+00  0.0000E+00   
1.00E+11  0.034  23.934  0.0000E+00  0.0000E+00   0.0000E+00  0.0000E+00   5.2247E-316 2.4291E-315  0.0000E+00  0.0000E+00   
1.00E+11  0.060  23.933  0.0000E+00  0.0000E+00   0.0000E+00  0.0000E+00   1.6464E-182 7.6881E-182  0.0000E+00  0.0000E+00   
1.00E+11  0.086  23.933  0.0000E+00  0.0000E+00   0.0000E+00  0.0000E+00   2.2257E-129 1.0389E-128  0.0000E+00  0.0000E+00   
1.00E+11  0.129  23.931  0.0000E+00  0.0000E+00   0.0000E+00  0.0000E+00   6.2931E-88  2.9168E-87   0.0000E+00  0.0000E+00   
1.00E+11  0.172  23.930  0.0000E+00  0.0000E+00   0.0000E+00  0.0000E+00   4.1368E-67  1.8986E-66   0.0000E+00  0.0000E+00   
1.00E+11  0.259  23.924  0.0000E+00  0.0000E+00   0.0000E+00  0.0000E+00   3.8450E-46  1.7485E-45   0.0000E+00  0.0000E+00   
1.00E+11  0.431  23.908  0.0000E+00  0.0000E+00   0.0000E+00  0.0000E+00   4.5831E-29  2.1788E-28   0.0000E+00  0.0000E+00   
1.00E+11  0.862  23.832  0.0000E+00  0.0000E+00   0.0000E+00  0.0000E+00   1.4846E-15  9.0419E-15   0.0000E+00  0.0000E+00   
1.00E+11  2.585  23.015  0.0000E+00  0.0000E+00   0.0000E+00  0.0000E+00   6.5277E-05  9.7179E-04   0.0000E+00  0.0000E+00   
