rhoYe is density times electron fraction [g/cm^3], T is temperature [MeV], mu_e is electron chemical potential [MeV]
e-(+) cap is electron (positron) capture, e-(+) dec is electron (positron) decay
For each process, first column is neutrino production [neutrinos/baryon second] and second column is energy loss [MeV/baryon second].
rhoYe     T      mu_e    e- cap                   e+ dec                   e+ cap                   e- dec                   
1.00E+01  0.001  0.509   0.0000E+00  0.0000E+00   0.0000E+00  0.0000E+00   0.0000E+00  0.0000E+00   1.7894E-03  4.7242E-03   
1.00E+01  0.009  0.453   0.0000E+00  0.0000E+00   0.0000E+00  0.0000E+00   6.9667E-57  3.0392E-56   1.7894E-03  4.7242E-03   
1.00E+01  0.017  0.377   0.0000E+00  0.0000E+00   0.0000E+00  0.0000E+00   6.1465E-30  2.6856E-29   1.7894E-03  4.7242E-03   
1.00E+01  0.034  0.205   0.0000E+00  0.0000E+00   0.0000E+00  0.0000E+00   6.3585E-16  2.7867E-15   1.7894E-03  4.7242E-03   
1.00E+01  0.060  0.008   0.0000E+00  0.0000E+00   0.0000E+00  0.0000E+00   4.0009E-10  1.7614E-09   1.7859E-03  4.7145E-03   
1.00E+01  0.086  0.000   0.0000E+00  0.0000E+00   0.0000E+00  0.0000E+00   1.2295E-08  5.4303E-08   1.7642E-03  4.6546E-03   
1.00E+01  0.129  0.000   0.0000E+00  0.0000E+00   0.0000E+00  0.0000E+00   2.1264E-07  9.4074E-07   1.6779E-03  4.4160E-03   
1.00E+01  0.172  0.000   0.0000E+00  0.0000E+00   0.0000E+00  0.0000E+00   1.0718E-06  4.7431E-06   1.5673E-03  4.1111E-03   
1.00E+01  0.259  0.000   0.0000E+00  0.0000E+00   0.0000E+00  0.0000E+00   7.4119E-06  3.3082E-05   1.3953E-03  3.6540E-03   
1.00E+01  0.431  0.000   0.0000E+00  0.0000E+00   0.0000E+00  0.0000E+00   6.6436E-05  3.1624E-04   1.3559E-03  3.7062E-03   
1.00E+01  0.862  0.000   0.0000E+00  0.0000E+00   0.0000E+00  0.0000E+00   1.5877E-03  9.7739E-03   3.0166E-03  1.0861E-02   
1.00E+01  2.585  0.000   0.0000E+00  0.0000E+00   0.0000E+00  0.0000E+00   4.6607E-01  7.0119E+00   4.4338E-02  1.9877E-01   
1.00E+01  0.001  0.509   0.0000E+00  0.0000E+00   0.0000E+00  0.0000E+00   0.0000E+00  0.0000E+00   1.7894E-03  4.7242E-03   
1.00E+01  0.009  0.453   0.0000E+00  0.0000E+00   0.0000E+00  0.0000E+00   6.9667E-57  3.0392E-56   1.7894E-03  4.7242E-03   
1.00E+01  0.017  0.377   0.0000E+00  0.0000E+00   0.0000E+00  0.0000E+00   6.1465E-30  2.6856E-29   1.7894E-03  4.7242E-03   
1.00E+01  0.034  0.205   0.0000E+00  0.0000E+00   0.0000E+00  0.0000E+00   6.3585E-16  2.7867E-15   1.7894E-03  4.7242E-03   
1.00E+01  0.060  0.008   0.0000E+00  0.0000E+00   0.0000E+00  0.0000E+00   4.0009E-10  1.7614E-09   1.7859E-03  4.7145E-03   
1.00E+01  0.086  0.000   0.0000E+00  0.0000E+00   0.0000E+00  0.0000E+00   1.2295E-08  5.4303E-08   1.7642E-03  4.6546E-03   
1.00E+01  0.129  0.000   0.0000E+00  0.0000E+00   0.0000E+00  0.0000E+00   2.1264E-07  9.4074E-07   1.6779E-03  4.4160E-03   
1.00E+01  0.172  0.000   0.0000E+00  0.0000E+00   0.0000E+00  0.0000E+00   1.0718E-06  4.7431E-06   1.5673E-03  4.1111E-03   
1.00E+01  0.259  0.000   0.0000E+00  0.0000E+00   0.0000E+00  0.0000E+00   7.4119E-06  3.3082E-05   1.3953E-03  3.6540E-03   
1.00E+01  0.431  0.000   0.0000E+00  0.0000E+00   0.0000E+00  0.0000E+00   6.6436E-05  3.1624E-04   1.3559E-03  3.7062E-03   
1.00E+01  0.862  0.000   0.0000E+00  0.0000E+00   0.0000E+00  0.0000E+00   1.5877E-03  9.7739E-03   3.0166E-03  1.0861E-02   
1.00E+01  2.585  0.000   0.0000E+00  0.0000E+00   0.0000E+00  0.0000E+00   4.6607E-01  7.0119E+00   4.4338E-02  1.9877E-01   
1.00E+02  0.001  0.511   0.0000E+00  0.0000E+00   0.0000E+00  0.0000E+00   0.0000E+00  0.0000E+00   1.7894E-03  4.7241E-03   
1.00E+02  0.009  0.473   0.0000E+00  0.0000E+00   0.0000E+00  0.0000E+00   6.9363E-58  3.0260E-57   1.7894E-03  4.7242E-03   
1.00E+02  0.017  0.416   0.0000E+00  0.0000E+00   0.0000E+00  0.0000E+00   6.1388E-31  2.6822E-30   1.7894E-03  4.7242E-03   
1.00E+02  0.034  0.284   0.0000E+00  0.0000E+00   0.0000E+00  0.0000E+00   6.3559E-17  2.7856E-16   1.7894E-03  4.7242E-03   
1.00E+02  0.060  0.065   0.0000E+00  0.0000E+00   0.0000E+00  0.0000E+00   1.5453E-10  6.8030E-10   1.7859E-03  4.7145E-03   
1.00E+02  0.086  0.005   0.0000E+00  0.0000E+00   0.0000E+00  0.0000E+00   1.1697E-08  5.1660E-08   1.7642E-03  4.6546E-03   
1.00E+02  0.129  0.000   0.0000E+00  0.0000E+00   0.0000E+00  0.0000E+00   2.1193E-07  9.3761E-07   1.6779E-03  4.4160E-03   
1.00E+02  0.172  0.000   0.0000E+00  0.0000E+00   0.0000E+00  0.0000E+00   1.0711E-06  4.7397E-06   1.5673E-03  4.1111E-03   
1.00E+02  0.259  0.000   0.0000E+00  0.0000E+00   0.0000E+00  0.0000E+00   7.4110E-06  3.3078E-05   1.3953E-03  3.6540E-03   
1.00E+02  0.431  0.000   0.0000E+00  0.0000E+00   0.0000E+00  0.0000E+00   6.6434E-05  3.1623E-04   1.3559E-03  3.7062E-03   
1.00E+02  0.862  0.000   0.0000E+00  0.0000E+00   0.0000E+00  0.0000E+00   1.5877E-03  9.7739E-03   3.0166E-03  1.0861E-02   
1.00E+02  2.585  0.000   0.0000E+00  0.0000E+00   0.0000E+00  0.0000E+00   4.6607E-01  7.0119E+00   4.4338E-02  1.9877E-01   
1.00E+01  0.001  0.509   0.0000E+00  0.0000E+00   0.0000E+00  0.0000E+00   0.0000E+00  0.0000E+00   1.7894E-03  4.7242E-03   
1.00E+01  0.009  0.453   0.0000E+00  0.0000E+00   0.0000E+00  0.0000E+00   6.9667E-57  3.0392E-56   1.7894E-03  4.7242E-03   
1.00E+01  0.017  0.377   0.0000E+00  0.0000E+00   0.0000E+00  0.0000E+00   6.1465E-30  2.6856E-29   1.7894E-03  4.7242E-03   
1.00E+01  0.034  0.205   0.0000E+00  0.0000E+00   0.0000E+00  0.0000E+00   6.3585E-16  2.7867E-15   1.7894E-03  4.7242E-03   
1.00E+01  0.060  0.008   0.0000E+00  0.0000E+00   0.0000E+00  0.0000E+00   4.0009E-10  1.7614E-09   1.7859E-03  4.7145E-03   
1.00E+01  0.086  0.000   0.0000E+00  0.0000E+00   0.0000E+00  0.0000E+00   1.2295E-08  5.4303E-08   1.7642E-03  4.6546E-03   
1.00E+01  0.129  0.000   0.0000E+00  0.0000E+00   0.0000E+00  0.0000E+00   2.1264E-07  9.4074E-07   1.6779E-03  4.4160E-03   
1.00E+01  0.172  0.000   0.0000E+00  0.0000E+00   0.0000E+00  0.0000E+00   1.0718E-06  4.7431E-06   1.5673E-03  4.1111E-03   
1.00E+01  0.259  0.000   0.0000E+00  0.0000E+00   0.0000E+00  0.0000E+00   7.4119E-06  3.3082E-05   1.3953E-03  3.6540E-03   
1.00E+01  0.431  0.000   0.0000E+00  0.0000E+00   0.0000E+00  0.0000E+00   6.6436E-05  3.1624E-04   1.3559E-03  3.7062E-03   
1.00E+01  0.862  0.000   0.0000E+00  0.0000E+00   0.0000E+00  0.0000E+00   1.5877E-03  9.7739E-03   3.0166E-03  1.0861E-02   
1.00E+01  2.585  0.000   0.0000E+00  0.0000E+00   0.0000E+00  0.0000E+00   4.6607E-01  7.0119E+00   4.4338E-02  1.9877E-01   
1.00E+02  0.001  0.511   0.0000E+00  0.0000E+00   0.0000E+00  0.0000E+00   0.0000E+00  0.0000E+00   1.7894E-03  4.7241E-03   
1.00E+02  0.009  0.473   0.0000E+00  0.0000E+00   0.0000E+00  0.0000E+00   6.9363E-58  3.0260E-57   1.7894E-03  4.7242E-03   
1.00E+02  0.017  0.416   0.0000E+00  0.0000E+00   0.0000E+00  0.0000E+00   6.1388E-31  2.6822E-30   1.7894E-03  4.7242E-03   
1.00E+02  0.034  0.284   0.0000E+00  0.0000E+00   0.0000E+00  0.0000E+00   6.3559E-17  2.7856E-16   1.7894E-03  4.7242E-03   
1.00E+02  0.060  0.065   0.0000E+00  0.0000E+00   0.0000E+00  0.0000E+00   1.5453E-10  6.8030E-10   1.7859E-03  4.7145E-03   
1.00E+02  0.086  0.005   0.0000E+00  0.0000E+00   0.0000E+00  0.0000E+00   1.1697E-08  5.1660E-08   1.7642E-03  4.6546E-03   
1.00E+02  0.129  0.000   0.0000E+00  0.0000E+00   0.0000E+00  0.0000E+00   2.1193E-07  9.3761E-07   1.6779E-03  4.4160E-03   
1.00E+02  0.172  0.000   0.0000E+00  0.0000E+00   0.0000E+00  0.0000E+00   1.0711E-06  4.7397E-06   1.5673E-03  4.1111E-03   
1.00E+02  0.259  0.000   0.0000E+00  0.0000E+00   0.0000E+00  0.0000E+00   7.4110E-06  3.3078E-05   1.3953E-03  3.6540E-03   
1.00E+02  0.431  0.000   0.0000E+00  0.0000E+00   0.0000E+00  0.0000E+00   6.6434E-05  3.1623E-04   1.3559E-03  3.7062E-03   
1.00E+02  0.862  0.000   0.0000E+00  0.0000E+00   0.0000E+00  0.0000E+00   1.5877E-03  9.7739E-03   3.0166E-03  1.0861E-02   
1.00E+02  2.585  0.000   0.0000E+00  0.0000E+00   0.0000E+00  0.0000E+00   4.6607E-01  7.0119E+00   4.4338E-02  1.9877E-01   
1.00E+03  0.001  0.513   0.0000E+00  0.0000E+00   0.0000E+00  0.0000E+00   0.0000E+00  0.0000E+00   1.7893E-03  4.7237E-03   
1.00E+03  0.009  0.493   0.0000E+00  0.0000E+00 1.00E+01  0.001  0.509   0.0000E+00  0.0000E+00   0.0000E+00  0.0000E+00   0.0000E+00  0.0000E+00   1.7894E-03  4.7242E-03   
1.00E+01  0.009  0.453   0.0000E+00  0.0000E+00   0.0000E+00  0.0000E+00   6.9667E-57  3.0392E-56   1.7894E-03  4.7242E-03   
1.00E+01  0.017  0.377   0.0000E+00  0.0000E+00   0.0000E+00  0.0000E+00   6.1465E-30  2.6856E-29   1.7894E-03  4.7242E-03   
1.00E+01  0.034  0.205   0.0000E+00  0.0000E+00   0.0000E+00  0.0000E+00   6.3585E-16  2.7867E-15   1.7894E-03  4.7242E-03   
1.00E+01  0.060  0.008   0.0000E+00  0.0000E+00   0.0000E+00  0.0000E+00   4.0009E-10  1.7614E-09   1.7859E-03  4.7145E-03   
1.00E+01  0.086  0.000   0.0000E+00  0.0000E+00   0.0000E+00  0.0000E+00   1.2295E-08  5.4303E-08   1.7642E-03  4.6546E-03   
1.00E+01  0.129  0.000   0.0000E+00  0.0000E+00   0.0000E+00  0.0000E+00   2.1264E-07  9.4074E-07   1.6779E-03  4.4160E-03   
1.00E+01  0.172  0.000   0.0000E+00  0.0000E+00   0.0000E+00  0.0000E+00   1.0718E-06  4.7431E-06   1.5673E-03  4.1111E-03   
1.00E+01  0.259  0.000   0.0000E+00  0.0000E+00   0.0000E+00  0.0000E+00   7.4119E-06  3.3082E-05   1.3953E-03  3.6540E-03   
1.00E+01  0.431  0.000   0.0000E+00  0.0000E+00   0.0000E+00  0.0000E+00   6.6436E-05  3.1624E-04   1.3559E-03  3.7062E-03   
1.00E+01  0.862  0.000   0.0000E+00  0.0000E+00   0.0000E+00  0.0000E+00   1.5877E-03  9.7739E-03   3.0166E-03  1.0861E-02   
1.00E+01  2.585  0.000   0.0000E+00  0.0000E+00   0.0000E+00  0.0000E+00   4.6607E-01  7.0119E+00   4.4338E-02  1.9877E-01   
1.00E+02  0.001  0.511   0.0000E+00  0.0000E+00   0.0000E+00  0.0000E+00   0.0000E+00  0.0000E+00   1.7894E-03  4.7241E-03   
1.00E+02  0.009  0.473   0.0000E+00  0.0000E+00   0.0000E+00  0.0000E+00   6.9363E-58  3.0260E-57   1.7894E-03  4.7242E-03   
1.00E+02  0.017  0.416   0.0000E+00  0.0000E+00   0.0000E+00  0.0000E+00   6.1388E-31  2.6822E-30   1.7894E-03  4.7242E-03   
1.00E+02  0.034  0.284   0.0000E+00  0.0000E+00   0.0000E+00  0.0000E+00   6.3559E-17  2.7856E-16   1.7894E-03  4.7242E-03   
1.00E+02  0.060  0.065   0.0000E+00  0.0000E+00   0.0000E+00  0.0000E+00   1.5453E-10  6.8030E-10   1.7859E-03  4.7145E-03   
1.00E+02  0.086  0.005   0.0000E+00  0.0000E+00   0.0000E+00  0.0000E+00   1.1697E-08  5.1660E-08   1.7642E-03  4.6546E-03   
1.00E+02  0.129  0.000   0.0000E+00  0.0000E+00   0.0000E+00  0.0000E+00   2.1193E-07  9.3761E-07   1.6779E-03  4.4160E-03   
1.00E+02  0.172  0.000   0.0000E+00  0.0000E+00   0.0000E+00  0.0000E+00   1.0711E-06  4.7397E-06   1.5673E-03  4.1111E-03   
1.00E+02  0.259  0.000   0.0000E+00  0.0000E+00   0.0000E+00  0.0000E+00   7.4110E-06  3.3078E-05   1.3953E-03  3.6540E-03   
1.00E+02  0.431  0.000   0.0000E+00  0.0000E+00   0.0000E+00  0.0000E+00   6.6434E-05  3.1623E-04   1.3559E-03  3.7062E-03   
1.00E+02  0.862  0.000   0.0000E+00  0.0000E+00   0.0000E+00  0.0000E+00   1.5877E-03  9.7739E-03   3.0166E-03  1.0861E-02   
1.00E+02  2.585  0.000   0.0000E+00  0.0000E+00   0.0000E+00  0.0000E+00   4.6607E-01  7.0119E+00   4.4338E-02  1.9877E-01   
1.00E+03  0.001  0.513   0.0000E+00  0.0000E+00   0.0000E+00  0.0000E+00   0.0000E+00  0.0000E+00   1.7893E-03  4.7237E-03   
1.00E+03  0.009  0.493   0.0000E+00  0.0000E+00   0.0000E+00  0.0000E+00   6.6380E-59  2.8958E-58   1.7893E-03  4.7240E-03   
1.00E+03  0.009  0.493   0.0000E+00  0.0000E+00 1.00E+01  0.001  0.509   0.0000E+00  0.0000E+00   0.0000E+00  0.0000E+00   0.0000E+00  0.0000E+00   1.7894E-03  4.7242E-03   
1.00E+03  0.017  0.456   0.0000E+00  0.0000E+00   0.0000E+00  0.0000E+00   6.0635E-32  2.6493E-31   1.7894E-03  4.7241E-03   
1.00E+03  0.034  0.364   0.0000E+00  0.0000E+00   0.0000E+00  0.0000E+00   6.3296E-18  2.7740E-17   1.7893E-03  4.7240E-03   
1.00E+03  0.060  0.197   0.0000E+00  0.0000E+00   0.0000E+00  0.0000E+00   1.7409E-11  7.6640E-11   1.7859E-03  4.7144E-03   
1.00E+03  0.086  0.046   0.0000E+00  0.0000E+00   0.0000E+00  0.0000E+00   7.2789E-09  3.2149E-08   1.7642E-03  4.6545E-03   
1.00E+03  0.129  0.005   0.0000E+00  0.0000E+00   0.0000E+00  0.0000E+00   2.0499E-07  9.0693E-07   1.6779E-03  4.4160E-03   
1.00E+03  0.172  0.001   0.0000E+00  0.0000E+00   0.0000E+00  0.0000E+00   1.0634E-06  4.7056E-06   1.5673E-03  4.1111E-03   
1.00E+03  0.259  0.000   0.0000E+00  0.0000E+00   0.0000E+00  0.0000E+00   7.4020E-06  3.3038E-05   1.3953E-03  3.6540E-03   
1.00E+03  0.431  0.000   0.0000E+00  0.0000E+00   0.0000E+00  0.0000E+00   6.6422E-05  3.1617E-04   1.3559E-03  3.7062E-03   
1.00E+03  0.862  0.000   0.0000E+00  0.0000E+00   0.0000E+00  0.0000E+00   1.5877E-03  9.7737E-03   3.0166E-03  1.0861E-02   
1.00E+03  2.585  0.000   0.0000E+00  0.0000E+00   0.0000E+00  0.0000E+00   4.6607E-01  7.0119E+00   4.4338E-02  1.9877E-01   
1.00E+04  0.001  0.523   0.0000E+00  0.0000E+00   0.0000E+00  0.0000E+00   0.0000E+00  0.0000E+00   1.7887E-03  4.7214E-03   
1.00E+04  0.009  0.516   0.0000E+00  0.0000E+00   0.0000E+00  0.0000E+00   4.8361E-60  2.1098E-59   1.7888E-03  4.7221E-03   
1.00E+04  0.017  0.498   0.0000E+00  0.0000E+00   0.0000E+00  0.0000E+00   5.3765E-33  2.3491E-32   1.7890E-03  4.7225E-03   
1.00E+04  0.034  0.444   0.0000E+00  0.0000E+00   0.0000E+00  0.0000E+00   6.0732E-19  2.6617E-18   1.7890E-03  4.7228E-03   
1.00E+04  0.060  0.337   0.0000E+00  0.0000E+00   0.0000E+00  0.0000E+00   1.7163E-12  7.5559E-12   1.7856E-03  4.7135E-03   
1.00E+04  0.086  0.209   0.0000E+00  0.0000E+00   0.0000E+00  0.0000E+00   1.0973E-09  4.8463E-09   1.7640E-03  4.6537E-03   
1.00E+04  0.129  0.047   0.0000E+00  0.0000E+00   0.0000E+00  0.0000E+00   1.4807E-07  6.5508E-07   1.6778E-03  4.4156E-03   
1.00E+04  0.172  0.014   0.0000E+00  0.0000E+00   0.0000E+00  0.0000E+00   9.8943E-07  4.3784E-06   1.5673E-03  4.1108E-03   
1.00E+04  0.259  0.004   0.0000E+00  0.0000E+00   0.0000E+00  0.0000E+00   7.3132E-06  3.2641E-05   1.3952E-03  3.6538E-03   
1.00E+04  0.431  0.001   0.0000E+00  0.0000E+00   0.0000E+00  0.0000E+00   6.6300E-05  3.1559E-04   1.3559E-03  3.7060E-03   
1.00E+04  0.862  0.000   0.0000E+00  0.0000E+00   0.0000E+00  0.0000E+00   1.5873E-03  9.7718E-03   3.0166E-03  1.0861E-02   
1.00E+04  2.585  0.000   0.0000E+00  0.0000E+00   0.0000E+00  0.0000E+00   4.6607E-01  7.0119E+00   4.4338E-02  1.9877E-01   
1.00E+05  0.001  0.565   0.0000E+00  0.0000E+00   0.0000E+00  0.0000E+00   0.0000E+00  0.0000E+00   1.7856E-03  4.7097E-03   
1.00E+05  0.009  0.563   0.0000E+00  0.0000E+00   0.0000E+00  0.0000E+00   2.1254E-62  9.2719E-62   1.7857E-03  4.7101E-03   
1.00E+05  0.017  0.558   0.0000E+00  0.0000E+00   0.0000E+00  0.0000E+00   1.6736E-34  7.3122E-34   1.7859E-03  4.7108E-03   
1.00E+05  0.034  0.537   0.0000E+00  0.0000E+00   0.0000E+00  0.0000E+00   4.0991E-20  1.7965E-19   1.7863E-03  4.7122E-03   
1.00E+05  0.060  0.485   0.0000E+00  0.0000E+00   0.0000E+00  0.0000E+00   1.4733E-13  6.4861E-13   1.7832E-03  4.7043E-03   
1.00E+05  0.086  0.413   0.0000E+00  0.0000E+00   0.0000E+00  0.0000E+00   1.0210E-10  4.5093E-10   1.7618E-03  4.6456E-03   
1.00E+05  0.129  0.265   0.0000E+00  0.0000E+00   0.0000E+00  0.0000E+00   2.7415E-08  1.2128E-07   1.6762E-03  4.4094E-03   
1.00E+05  0.172  0.128   0.0000E+00  0.0000E+00   0.0000E+00  0.0000E+00   5.1166E-07  2.2640E-06   1.5662E-03  4.1070E-03   
1.00E+05  0.259  0.035   0.0000E+00  0.0000E+00   0.0000E+00  0.0000E+00   6.4828E-06  2.8932E-05   1.3946E-03  3.6516E-03   
1.00E+05  0.431  0.009   0.0000E+00  0.0000E+00   0.0000E+00  0.0000E+00   6.5086E-05  3.0979E-04   1.3555E-03  3.7048E-03   
1.00E+05  0.862  0.002   0.0000E+00  0.0000E+00   0.0000E+00  0.0000E+00   1.5842E-03  9.7523E-03   3.0163E-03  1.0860E-02   
1.00E+05  2.585  0.000   0.0000E+00  0.0000E+00   0.0000E+00  0.0000E+00   4.6604E-01  7.0114E+00   4.4337E-02  1.9877E-01   
1.00E+06  0.001  0.726   0.0000E+00  0.0000E+00   0.0000E+00  0.0000E+00   0.0000E+00  0.0000E+00   1.7663E-03  4.6361E-03   
1.00E+06  0.009  0.725   0.0000E+00  0.0000E+00   0.0000E+00  0.0000E+00   1.4129E-70  6.1639E-70   1.7664E-03  4.6367E-03   
1.00E+06  0.017  0.724   0.0000E+00  0.0000E+00   0.0000E+00  0.0000E+00   1.0968E-38  4.7923E-38   1.7665E-03  4.6368E-03   
1.00E+06  0.034  0.718   0.0000E+00  0.0000E+00   0.0000E+00  0.0000E+00   2.1827E-22  9.5660E-22   1.7667E-03  4.6380E-03   
1.00E+06  0.060  0.700   0.0000E+00  0.0000E+00   0.0000E+00  0.0000E+00   4.1539E-15  1.8287E-14   1.7640E-03  4.6316E-03   
1.00E+06  0.086  0.672   0.0000E+00  0.0000E+00   0.0000E+00  0.0000E+00   5.0750E-12  2.2415E-11   1.7435E-03  4.5764E-03   
1.00E+06  0.129  0.604   0.0000E+00  0.0000E+00   0.0000E+00  0.0000E+00   2.0002E-09  8.8488E-09   1.6598E-03  4.3485E-03   
1.00E+06  0.172  0.512   0.0000E+00  0.0000E+00   0.0000E+00  0.0000E+00   5.5478E-08  2.4546E-07   1.5523E-03  4.0560E-03   
1.00E+06  0.259  0.299   0.0000E+00  0.0000E+00   0.0000E+00  0.0000E+00   2.3721E-06  1.0582E-05   1.3861E-03  3.6216E-03   
1.00E+06  0.431  0.091   0.0000E+00  0.0000E+00   0.0000E+00  0.0000E+00   5.4132E-05  2.5753E-04   1.3515E-03  3.6908E-03   
1.00E+06  0.862  0.020   0.0000E+00  0.0000E+00   0.0000E+00  0.0000E+00   1.5531E-03  9.5598E-03   3.0137E-03  1.0849E-02   
1.00E+06  2.585  0.002   0.0000E+00  0.0000E+00   0.0000E+00  0.0000E+00   4.6571E-01  7.0064E+00   4.4332E-02  1.9874E-01   
1.00E+07  0.001  1.223   0.0000E+00  0.0000E+00   0.0000E+00  0.0000E+00   0.0000E+00  0.0000E+00   1.6365E-03  4.1654E-03   
1.00E+07  0.009  1.222   0.0000E+00  0.0000E+00   0.0000E+00  0.0000E+00   1.2376E-95  5.3992E-95   1.6368E-03  4.1665E-03   
1.00E+07  0.017  1.222   0.0000E+00  0.0000E+00   0.0000E+00  0.0000E+00   3.1630E-51  1.3820E-50   1.6369E-03  4.1669E-03   
1.00E+07  0.034  1.219   0.0000E+00  0.0000E+00   0.0000E+00  0.0000E+00   1.0522E-28  4.6117E-28   1.6372E-03  4.1684E-03   
1.00E+07  0.060  1.212   0.0000E+00  0.0000E+00   0.0000E+00  0.0000E+00   8.6037E-19  3.7877E-18   1.6351E-03  4.1644E-03   
1.00E+07  0.086  1.200   0.0000E+00  0.0000E+00   0.0000E+00  0.0000E+00   1.1031E-14  4.8723E-14   1.6166E-03  4.1176E-03   
1.00E+07  0.129  1.173   0.0000E+00  0.0000E+00   0.0000E+00  0.0000E+00   2.4554E-11  1.0862E-10   1.5400E-03  3.9195E-03   
1.00E+07  0.172  1.133   0.0000E+00  0.0000E+00   0.0000E+00  0.0000E+00   1.5101E-09  6.6811E-09   1.4421E-03  3.6661E-03   
1.00E+07  0.259  1.021   0.0000E+00  0.0000E+00   0.0000E+00  0.0000E+00   1.4600E-07  6.5109E-07   1.2952E-03  3.3074E-03   
1.00E+07  0.431  0.698   0.0000E+00  0.0000E+00   0.0000E+00  0.0000E+00   1.3571E-05  6.4447E-05   1.2953E-03  3.4986E-03   
1.00E+07  0.862  0.196   0.0000E+00  0.0000E+00   0.0000E+00  0.0000E+00   1.2743E-03  7.8371E-03   2.9853E-03  1.0732E-02   
1.00E+07  2.585  0.021   0.0000E+00  0.0000E+00   0.0000E+00  0.0000E+00   4.6244E-01  6.9568E+00   4.4282E-02  1.9848E-01   
1.00E+08  0.001  2.447   0.0000E+00  0.0000E+00   0.0000E+00  0.0000E+00   0.0000E+00  0.0000E+00   1.0058E-03  2.1753E-03   
1.00E+08  0.009  2.447   0.0000E+00  0.0000E+00   0.0000E+00  0.0000E+00   2.4025E-157 1.0481E-156  1.0062E-03  2.1765E-03   
1.00E+08  0.017  2.446   0.0000E+00  0.0000E+00   0.0000E+00  0.0000E+00   4.3799E-82  1.9137E-81   1.0066E-03  2.1776E-03   
1.00E+08  0.034  2.445   0.0000E+00  0.0000E+00   0.0000E+00  0.0000E+00   3.7460E-44  1.6418E-43   1.0071E-03  2.1798E-03   
1.00E+08  0.060  2.442   0.0000E+00  0.0000E+00   0.0000E+00  0.0000E+00   1.1987E-27  5.2772E-27   1.0071E-03  2.1823E-03   
1.00E+08  0.086  2.437   0.0000E+00  0.0000E+00   0.0000E+00  0.0000E+00   6.4961E-21  2.8691E-20   9.9698E-04  2.1637E-03   
1.00E+08  0.129  2.424   0.0000E+00  0.0000E+00   0.0000E+00  0.0000E+00   1.5347E-15  6.7893E-15   9.5155E-04  2.0715E-03   
1.00E+08  0.172  2.406   0.0000E+00  0.0000E+00   0.0000E+00  0.0000E+00   9.3775E-13  4.1489E-12   8.9349E-04  1.9538E-03   
1.00E+08  0.259  2.355   0.0000E+00  0.0000E+00   0.0000E+00  0.0000E+00   8.4053E-10  3.7484E-09   8.1559E-04  1.8220E-03   
1.00E+08  0.431  2.192   0.0000E+00  0.0000E+00   0.0000E+00  0.0000E+00   4.2699E-07  2.0265E-06   8.8757E-04  2.2005E-03   
1.00E+08  0.862  1.493   0.0000E+00  0.0000E+00   0.0000E+00  0.0000E+00   2.9015E-04  1.7783E-03   2.6240E-03  9.2596E-03   
1.00E+08  2.585  0.209   0.0000E+00  0.0000E+00   0.0000E+00  0.0000E+00   4.3100E-01  6.4797E+00   4.3770E-02  1.9585E-01   
1.00E+09  0.001  5.181   0.0000E+00  0.0000E+00   0.0000E+00  0.0000E+00   0.0000E+00  0.0000E+00   1.9336E-05  1.0002E-05   
1.00E+09  0.009  5.180   0.0000E+00  0.0000E+00   0.0000E+00  0.0000E+00   4.0233E-295 1.7552E-294  1.9407E-05  1.0062E-05   
1.00E+09  0.017  5.180   0.0000E+00  0.0000E+00   0.0000E+00  0.0000E+00   5.6381E-151 2.4635E-150  1.9516E-05  1.0167E-05   
1.00E+09  0.034  5.180   0.0000E+00  0.0000E+00   0.0000E+00  0.0000E+00   1.3177E-78  5.7751E-78   1.9818E-05  1.0493E-05   
1.00E+09  0.060  5.178   0.0000E+00  0.0000E+00   0.0000E+00  0.0000E+00   2.3871E-47  1.0509E-46   2.0668E-05  1.1423E-05   
1.00E+09  0.086  5.176   0.0000E+00  0.0000E+00   0.0000E+00  0.0000E+00   1.0186E-34  4.4987E-34   2.1730E-05  1.2738E-05   
1.00E+09  0.129  5.170   0.0000E+00  0.0000E+00   0.0000E+00  0.0000E+00   9.1182E-25  4.0338E-24   2.3616E-05  1.5576E-05   
1.00E+09  0.172  5.161   0.0000E+00  0.0000E+00   0.0000E+00  0.0000E+00   1.0675E-19  4.7227E-19   2.5986E-05  1.9618E-05   
1.00E+09  0.259  5.138   0.0000E+00  0.0000E+00   0.0000E+00  0.0000E+00   1.7757E-14  7.9188E-14   3.5956E-05  3.7447E-05   
1.00E+09  0.431  5.062   0.0000E+00  0.0000E+00   0.0000E+00  0.0000E+00   5.4640E-10  2.5931E-09   9.4735E-05  1.5941E-04   
1.00E+09  0.862  4.708   0.0000E+00  0.0000E+00   0.0000E+00  0.0000E+00   7.0136E-06  4.2940E-05   9.7311E-04  3.0649E-03   
1.00E+09  2.585  1.972   0.0000E+00  0.0000E+00   0.0000E+00  0.0000E+00   2.2136E-01  3.3132E+00   3.7931E-02  1.6634E-01   
1.00E+10  0.001  11.119  0.0000E+00  0.0000E+00   0.0000E+00  0.0000E+00   0.0000E+00  0.0000E+00   0.0000E+00  0.0000E+00   
1.00E+10  0.009  11.118  0.0000E+00  0.0000E+00   0.0000E+00  0.0000E+00   0.0000E+00  0.0000E+00   0.0000E+00  0.0000E+00   
1.00E+10  0.017  11.118  0.0000E+00  0.0000E+00   0.0000E+00  0.0000E+00   1.3263E-300 5.7951E-300  3.5219E-186 4.9705E-186  
1.00E+10  0.034  11.118  0.0000E+00  0.0000E+00   0.0000E+00  0.0000E+00   2.0029E-153 8.7781E-153  3.9432E-96  5.5768E-96   
1.00E+10  0.060  11.117  0.0000E+00  0.0000E+00   0.0000E+00  0.0000E+00   4.1554E-90  1.8294E-89   1.6152E-57  2.3165E-57   
1.00E+10  0.086  11.116  0.0000E+00  0.0000E+00   0.0000E+00  0.0000E+00   1.1749E-64  5.1889E-64   6.1488E-42  9.3579E-42   
1.00E+10  0.129  11.113  0.0000E+00  0.0000E+00   0.0000E+00  0.0000E+00   9.7852E-45  4.3289E-44   1.6207E-29  2.6736E-29   
1.00E+10  0.172  11.109  0.0000E+00  0.0000E+00   0.0000E+00  0.0000E+00   1.0968E-34  4.8528E-34   3.4065E-23  5.7488E-23   
1.00E+10  0.259  11.098  0.0000E+00  0.0000E+00   0.0000E+00  0.0000E+00   1.7215E-24  7.6770E-24   8.4097E-17  1.4452E-16   
1.00E+10  0.431  11.063  0.0000E+00  0.0000E+00   0.0000E+00  0.0000E+00   4.8807E-16  2.3163E-15   1.6493E-11  3.1079E-11   
1.00E+10  0.862  10.898  0.0000E+00  0.0000E+00   0.0000E+00  0.0000E+00   5.3226E-09  3.2587E-08   7.6766E-07  1.9838E-06   
1.00E+10  2.585  9.163   0.0000E+00  0.0000E+00   0.0000E+00  0.0000E+00   1.3951E-02  2.0779E-01   6.0157E-03  2.5375E-02   
1.00E+11  0.001  23.934  0.0000E+00  0.0000E+00   0.0000E+00  0.0000E+00   0.0000E+00  0.0000E+00   0.0000E+00  0.0000E+00   
1.00E+11  0.009  23.934  0.0000E+00  0.0000E+00   0.0000E+00  0.0000E+00   0.0000E+00  0.0000E+00   0.0000E+00  0.0000E+00   
1.00E+11  0.017  23.933  0.0000E+00  0.0000E+00   0.0000E+00  0.0000E+00   0.0000E+00  0.0000E+00   0.0000E+00  0.0000E+00   
1.00E+11  0.034  23.934  0.0000E+00  0.0000E+00   0.0000E+00  0.0000E+00   7.0681E-316 3.0820E-315  0.0000E+00  0.0000E+00   
1.00E+11  0.060  23.933  0.0000E+00  0.0000E+00   0.0000E+00  0.0000E+00   2.2253E-182 9.7968E-182  0.0000E+00  0.0000E+00   
1.00E+11  0.086  23.933  0.0000E+00  0.0000E+00   0.0000E+00  0.0000E+00   2.9999E-129 1.3249E-128  0.0000E+00  0.0000E+00   
1.00E+11  0.129  23.931  0.0000E+00  0.0000E+00   0.0000E+00  0.0000E+00   8.3888E-88  3.7111E-87   0.0000E+00  0.0000E+00   
1.00E+11  0.172  23.930  0.0000E+00  0.0000E+00   0.0000E+00  0.0000E+00   5.4300E-67  2.4024E-66   0.0000E+00  0.0000E+00   
1.00E+11  0.259  23.924  0.0000E+00  0.0000E+00   0.0000E+00  0.0000E+00   4.8877E-46  2.1797E-45   0.0000E+00  0.0000E+00   
1.00E+11  0.431  23.908  0.0000E+00  0.0000E+00   0.0000E+00  0.0000E+00   5.5131E-29  2.6164E-28   0.0000E+00  0.0000E+00   
1.00E+11  0.862  23.832  0.0000E+00  0.0000E+00   0.0000E+00  0.0000E+00   1.6145E-15  9.8845E-15   0.0000E+00  0.0000E+00   
1.00E+11  2.585  23.015  0.0000E+00  0.0000E+00   0.0000E+00  0.0000E+00   6.5765E-05  9.7919E-04   0.0000E+00  0.0000E+00   
