rhoYe is density times electron fraction [g/cm^3], T is temperature [MeV], mu_e is electron chemical potential [MeV]
e-(+) cap is electron (positron) capture, e-(+) dec is electron (positron) decay
For each process, first column is neutrino production [neutrinos/baryon second] and second column is energy loss [MeV/baryon second].
rhoYe     T      mu_e    e- cap                   e+ dec                   e+ cap                   e- dec                   
1.00E+01  0.001  0.509   0.0000E+00  0.0000E+00   0.0000E+00  0.0000E+00   0.0000E+00  0.0000E+00   9.0679E-05  9.8378E-05   
1.00E+01  0.009  0.453   0.0000E+00  0.0000E+00   0.0000E+00  0.0000E+00   8.4342E-57  2.2783E-56   9.0680E-05  9.8379E-05   
1.00E+01  0.017  0.377   0.0000E+00  0.0000E+00   0.0000E+00  0.0000E+00   6.2445E-30  1.6951E-29   9.0680E-05  9.8379E-05   
1.00E+01  0.034  0.205   5.1994E-180 5.4372E-181  0.0000E+00  0.0000E+00   5.7139E-16  1.5662E-15   9.0680E-05  9.8379E-05   
1.00E+01  0.060  0.008   3.3155E-106 6.1179E-107  0.0000E+00  0.0000E+00   3.3718E-10  9.3777E-10   9.0680E-05  9.8379E-05   
1.00E+01  0.086  0.000   1.5033E-75  3.9949E-76   0.0000E+00  0.0000E+00   1.0174E-08  2.8718E-08   9.0673E-05  9.8367E-05   
1.00E+01  0.129  0.000   1.7391E-51  7.0238E-52   0.0000E+00  0.0000E+00   1.7912E-07  5.1860E-07   9.0587E-05  9.8233E-05   
1.00E+01  0.172  0.000   2.5033E-39  1.3650E-39   0.0000E+00  0.0000E+00   9.4362E-07  2.8062E-06   9.0332E-05  9.7854E-05   
1.00E+01  0.259  0.000   5.5274E-27  4.6286E-27   0.0000E+00  0.0000E+00   7.2130E-06  2.2753E-05   9.0196E-05  9.8294E-05   
1.00E+01  0.431  0.000   8.3448E-17  1.2131E-16   0.0000E+00  0.0000E+00   7.8311E-05  2.8360E-04   1.2634E-04  1.8996E-04   
1.00E+01  0.862  0.000   1.0001E-08  3.1131E-08   0.0000E+00  0.0000E+00   2.9573E-03  1.6842E-02   3.7884E-03  1.4663E-02   
1.00E+01  2.585  0.000   1.1576E-02  1.1857E-01   0.0000E+00  0.0000E+00   5.4168E-01  9.0980E+00   8.7196E-02  4.3707E-01   
1.00E+01  0.001  0.509   0.0000E+00  0.0000E+00   0.0000E+00  0.0000E+00   0.0000E+00  0.0000E+00   9.0679E-05  9.8378E-05   
1.00E+01  0.009  0.453   0.0000E+00  0.0000E+00   0.0000E+00  0.0000E+00   8.4342E-57  2.2783E-56   9.0680E-05  9.8379E-05   
1.00E+01  0.017  0.377   0.0000E+00  0.0000E+00   0.0000E+00  0.0000E+00   6.2445E-30  1.6951E-29   9.0680E-05  9.8379E-05   
1.00E+01  0.034  0.205   5.1994E-180 5.4372E-181  0.0000E+00  0.0000E+00   5.7139E-16  1.5662E-15   9.0680E-05  9.8379E-05   
1.00E+01  0.060  0.008   3.3155E-106 6.1179E-107  0.0000E+00  0.0000E+00   3.3718E-10  9.3777E-10   9.0680E-05  9.8379E-05   
1.00E+01  0.086  0.000   1.5033E-75  3.9949E-76   0.0000E+00  0.0000E+00   1.0174E-08  2.8718E-08   9.0673E-05  9.8367E-05   
1.00E+01  0.129  0.000   1.7391E-51  7.0238E-52   0.0000E+00  0.0000E+00   1.7912E-07  5.1860E-07   9.0587E-05  9.8233E-05   
1.00E+01  0.172  0.000   2.5033E-39  1.3650E-39   0.0000E+00  0.0000E+00   9.4362E-07  2.8062E-06   9.0332E-05  9.7854E-05   
1.00E+01  0.259  0.000   5.5274E-27  4.6286E-27   0.0000E+00  0.0000E+00   7.2130E-06  2.2753E-05   9.0196E-05  9.8294E-05   
1.00E+01  0.431  0.000   8.3448E-17  1.2131E-16   0.0000E+00  0.0000E+00   7.8311E-05  2.8360E-04   1.2634E-04  1.8996E-04   
1.00E+01  0.862  0.000   1.0001E-08  3.1131E-08   0.0000E+00  0.0000E+00   2.9573E-03  1.6842E-02   3.7884E-03  1.4663E-02   
1.00E+01  2.585  0.000   1.1576E-02  1.1857E-01   0.0000E+00  0.0000E+00   5.4168E-01  9.0980E+00   8.7196E-02  4.3707E-01   
1.00E+02  0.001  0.511   0.0000E+00  0.0000E+00   0.0000E+00  0.0000E+00   0.0000E+00  0.0000E+00   9.0670E-05  9.8361E-05   
1.00E+02  0.009  0.473   0.0000E+00  0.0000E+00   0.0000E+00  0.0000E+00   8.3974E-58  2.2684E-57   9.0678E-05  9.8376E-05   
1.00E+02  0.017  0.416   0.0000E+00  0.0000E+00   0.0000E+00  0.0000E+00   6.2368E-31  1.6930E-30   9.0679E-05  9.8377E-05   
1.00E+02  0.034  0.284   5.2015E-179 5.4394E-180  0.0000E+00  0.0000E+00   5.7116E-17  1.5655E-16   9.0679E-05  9.8378E-05   
1.00E+02  0.060  0.065   8.5844E-106 1.5840E-106  0.0000E+00  0.0000E+00   1.3023E-10  3.6220E-10   9.0679E-05  9.8378E-05   
1.00E+02  0.086  0.005   1.5802E-75  4.1994E-76   0.0000E+00  0.0000E+00   9.6791E-09  2.7320E-08   9.0673E-05  9.8367E-05   
1.00E+02  0.129  0.000   1.7450E-51  7.0473E-52   0.0000E+00  0.0000E+00   1.7853E-07  5.1688E-07   9.0587E-05  9.8232E-05   
1.00E+02  0.172  0.000   2.5051E-39  1.3660E-39   0.0000E+00  0.0000E+00   9.4294E-07  2.8042E-06   9.0332E-05  9.7854E-05   
1.00E+02  0.259  0.000   5.5281E-27  4.6291E-27   0.0000E+00  0.0000E+00   7.2122E-06  2.2750E-05   9.0196E-05  9.8293E-05   
1.00E+02  0.431  0.000   8.3450E-17  1.2131E-16   0.0000E+00  0.0000E+00   7.8309E-05  2.8359E-04   1.2634E-04  1.8996E-04   
1.00E+02  0.862  0.000   1.0001E-08  3.1131E-08   0.0000E+00  0.0000E+00   2.9573E-03  1.6842E-02   3.7884E-03  1.4663E-02   
1.00E+02  2.585  0.000   1.1576E-02  1.1857E-01   0.0000E+00  0.0000E+00   5.4168E-01  9.0980E+00   8.7196E-02  4.3707E-01   
1.00E+01  0.001  0.509   0.0000E+00  0.0000E+00   0.0000E+00  0.0000E+00   0.0000E+00  0.0000E+00   9.0679E-05  9.8378E-05   
1.00E+01  0.009  0.453   0.0000E+00  0.0000E+00   0.0000E+00  0.0000E+00   8.4342E-57  2.2783E-56   9.0680E-05  9.8379E-05   
1.00E+01  0.017  0.377   0.0000E+00  0.0000E+00   0.0000E+00  0.0000E+00   6.2445E-30  1.6951E-29   9.0680E-05  9.8379E-05   
1.00E+01  0.034  0.205   5.1994E-180 5.4372E-181  0.0000E+00  0.0000E+00   5.7139E-16  1.5662E-15   9.0680E-05  9.8379E-05   
1.00E+01  0.060  0.008   3.3155E-106 6.1179E-107  0.0000E+00  0.0000E+00   3.3718E-10  9.3777E-10   9.0680E-05  9.8379E-05   
1.00E+01  0.086  0.000   1.5033E-75  3.9949E-76   0.0000E+00  0.0000E+00   1.0174E-08  2.8718E-08   9.0673E-05  9.8367E-05   
1.00E+01  0.129  0.000   1.7391E-51  7.0238E-52   0.0000E+00  0.0000E+00   1.7912E-07  5.1860E-07   9.0587E-05  9.8233E-05   
1.00E+01  0.172  0.000   2.5033E-39  1.3650E-39   0.0000E+00  0.0000E+00   9.4362E-07  2.8062E-06   9.0332E-05  9.7854E-05   
1.00E+01  0.259  0.000   5.5274E-27  4.6286E-27   0.0000E+00  0.0000E+00   7.2130E-06  2.2753E-05   9.0196E-05  9.8294E-05   
1.00E+01  0.431  0.000   8.3448E-17  1.2131E-16   0.0000E+00  0.0000E+00   7.8311E-05  2.8360E-04   1.2634E-04  1.8996E-04   
1.00E+01  0.862  0.000   1.0001E-08  3.1131E-08   0.0000E+00  0.0000E+00   2.9573E-03  1.6842E-02   3.7884E-03  1.4663E-02   
1.00E+01  2.585  0.000   1.1576E-02  1.1857E-01   0.0000E+00  0.0000E+00   5.4168E-01  9.0980E+00   8.7196E-02  4.3707E-01   
1.00E+02  0.001  0.511   0.0000E+00  0.0000E+00   0.0000E+00  0.0000E+00   0.0000E+00  0.0000E+00   9.0670E-05  9.8361E-05   
1.00E+02  0.009  0.473   0.0000E+00  0.0000E+00   0.0000E+00  0.0000E+00   8.3974E-58  2.2684E-57   9.0678E-05  9.8376E-05   
1.00E+02  0.017  0.416   0.0000E+00  0.0000E+00   0.0000E+00  0.0000E+00   6.2368E-31  1.6930E-30   9.0679E-05  9.8377E-05   
1.00E+02  0.034  0.284   5.2015E-179 5.4394E-180  0.0000E+00  0.0000E+00   5.7116E-17  1.5655E-16   9.0679E-05  9.8378E-05   
1.00E+02  0.060  0.065   8.5844E-106 1.5840E-106  0.0000E+00  0.0000E+00   1.3023E-10  3.6220E-10   9.0679E-05  9.8378E-05   
1.00E+02  0.086  0.005   1.5802E-75  4.1994E-76   0.0000E+00  0.0000E+00   9.6791E-09  2.7320E-08   9.0673E-05  9.8367E-05   
1.00E+02  0.129  0.000   1.7450E-51  7.0473E-52   0.0000E+00  0.0000E+00   1.7853E-07  5.1688E-07   9.0587E-05  9.8232E-05   
1.00E+02  0.172  0.000   2.5051E-39  1.3660E-39   0.0000E+00  0.0000E+00   9.4294E-07  2.8042E-06   9.0332E-05  9.7854E-05   
1.00E+02  0.259  0.000   5.5281E-27  4.6291E-27   0.0000E+00  0.0000E+00   7.2122E-06  2.2750E-05   9.0196E-05  9.8293E-05   
1.00E+02  0.431  0.000   8.3450E-17  1.2131E-16   0.0000E+00  0.0000E+00   7.8309E-05  2.8359E-04   1.2634E-04  1.8996E-04   
1.00E+02  0.862  0.000   1.0001E-08  3.1131E-08   0.0000E+00  0.0000E+00   2.9573E-03  1.6842E-02   3.7884E-03  1.4663E-02   
1.00E+02  2.585  0.000   1.1576E-02  1.1857E-01   0.0000E+00  0.0000E+00   5.4168E-01  9.0980E+00   8.7196E-02  4.3707E-01   
1.00E+03  0.001  0.513   0.0000E+00  0.0000E+00   0.0000E+00  0.0000E+00   0.0000E+00  0.0000E+00   9.0641E-05  9.8310E-05   
1.00E+03  0.009  0.493   0.0000E+00  0.0000E+00 1.00E+01  0.001  0.509   0.0000E+00  0.0000E+00   0.0000E+00  0.0000E+00   0.0000E+00  0.0000E+00   9.0679E-05  9.8378E-05   
1.00E+01  0.009  0.453   0.0000E+00  0.0000E+00   0.0000E+00  0.0000E+00   8.4342E-57  2.2783E-56   9.0680E-05  9.8379E-05   
1.00E+01  0.017  0.377   0.0000E+00  0.0000E+00   0.0000E+00  0.0000E+00   6.2445E-30  1.6951E-29   9.0680E-05  9.8379E-05   
1.00E+01  0.034  0.205   5.1994E-180 5.4372E-181  0.0000E+00  0.0000E+00   5.7139E-16  1.5662E-15   9.0680E-05  9.8379E-05   
1.00E+01  0.060  0.008   3.3155E-106 6.1179E-107  0.0000E+00  0.0000E+00   3.3718E-10  9.3777E-10   9.0680E-05  9.8379E-05   
1.00E+01  0.086  0.000   1.5033E-75  3.9949E-76   0.0000E+00  0.0000E+00   1.0174E-08  2.8718E-08   9.0673E-05  9.8367E-05   
1.00E+01  0.129  0.000   1.7391E-51  7.0238E-52   0.0000E+00  0.0000E+00   1.7912E-07  5.1860E-07   9.0587E-05  9.8233E-05   
1.00E+01  0.172  0.000   2.5033E-39  1.3650E-39   0.0000E+00  0.0000E+00   9.4362E-07  2.8062E-06   9.0332E-05  9.7854E-05   
1.00E+01  0.259  0.000   5.5274E-27  4.6286E-27   0.0000E+00  0.0000E+00   7.2130E-06  2.2753E-05   9.0196E-05  9.8294E-05   
1.00E+01  0.431  0.000   8.3448E-17  1.2131E-16   0.0000E+00  0.0000E+00   7.8311E-05  2.8360E-04   1.2634E-04  1.8996E-04   
1.00E+01  0.862  0.000   1.0001E-08  3.1131E-08   0.0000E+00  0.0000E+00   2.9573E-03  1.6842E-02   3.7884E-03  1.4663E-02   
1.00E+01  2.585  0.000   1.1576E-02  1.1857E-01   0.0000E+00  0.0000E+00   5.4168E-01  9.0980E+00   8.7196E-02  4.3707E-01   
1.00E+02  0.001  0.511   0.0000E+00  0.0000E+00   0.0000E+00  0.0000E+00   0.0000E+00  0.0000E+00   9.0670E-05  9.8361E-05   
1.00E+02  0.009  0.473   0.0000E+00  0.0000E+00   0.0000E+00  0.0000E+00   8.3974E-58  2.2684E-57   9.0678E-05  9.8376E-05   
1.00E+02  0.017  0.416   0.0000E+00  0.0000E+00   0.0000E+00  0.0000E+00   6.2368E-31  1.6930E-30   9.0679E-05  9.8377E-05   
1.00E+02  0.034  0.284   5.2015E-179 5.4394E-180  0.0000E+00  0.0000E+00   5.7116E-17  1.5655E-16   9.0679E-05  9.8378E-05   
1.00E+02  0.060  0.065   8.5844E-106 1.5840E-106  0.0000E+00  0.0000E+00   1.3023E-10  3.6220E-10   9.0679E-05  9.8378E-05   
1.00E+02  0.086  0.005   1.5802E-75  4.1994E-76   0.0000E+00  0.0000E+00   9.6791E-09  2.7320E-08   9.0673E-05  9.8367E-05   
1.00E+02  0.129  0.000   1.7450E-51  7.0473E-52   0.0000E+00  0.0000E+00   1.7853E-07  5.1688E-07   9.0587E-05  9.8232E-05   
1.00E+02  0.172  0.000   2.5051E-39  1.3660E-39   0.0000E+00  0.0000E+00   9.4294E-07  2.8042E-06   9.0332E-05  9.7854E-05   
1.00E+02  0.259  0.000   5.5281E-27  4.6291E-27   0.0000E+00  0.0000E+00   7.2122E-06  2.2750E-05   9.0196E-05  9.8293E-05   
1.00E+02  0.431  0.000   8.3450E-17  1.2131E-16   0.0000E+00  0.0000E+00   7.8309E-05  2.8359E-04   1.2634E-04  1.8996E-04   
1.00E+02  0.862  0.000   1.0001E-08  3.1131E-08   0.0000E+00  0.0000E+00   2.9573E-03  1.6842E-02   3.7884E-03  1.4663E-02   
1.00E+02  2.585  0.000   1.1576E-02  1.1857E-01   0.0000E+00  0.0000E+00   5.4168E-01  9.0980E+00   8.7196E-02  4.3707E-01   
1.00E+03  0.001  0.513   0.0000E+00  0.0000E+00   0.0000E+00  0.0000E+00   0.0000E+00  0.0000E+00   9.0641E-05  9.8310E-05   
1.00E+03  0.009  0.493   0.0000E+00  0.0000E+00   0.0000E+00  0.0000E+00   8.0362E-59  2.1708E-58   9.0660E-05  9.8345E-05   
1.00E+03  0.009  0.493   0.0000E+00  0.0000E+00 1.00E+01  0.001  0.509   0.0000E+00  0.0000E+00   0.0000E+00  0.0000E+00   0.0000E+00  0.0000E+00   9.0679E-05  9.8378E-05   
1.00E+03  0.017  0.456   0.0000E+00  0.0000E+00   0.0000E+00  0.0000E+00   6.1603E-32  1.6723E-31   9.0666E-05  9.8354E-05   
1.00E+03  0.034  0.364   5.2231E-178 5.4621E-179  0.0000E+00  0.0000E+00   5.6879E-18  1.5590E-17   9.0669E-05  9.8360E-05   
1.00E+03  0.060  0.197   7.6200E-105 1.4061E-105  0.0000E+00  0.0000E+00   1.4672E-11  4.0805E-11   9.0671E-05  9.8364E-05   
1.00E+03  0.086  0.046   2.5398E-75  6.7495E-76   0.0000E+00  0.0000E+00   6.0235E-09  1.7002E-08   9.0668E-05  9.8359E-05   
1.00E+03  0.129  0.005   1.8043E-51  7.2868E-52   0.0000E+00  0.0000E+00   1.7268E-07  4.9996E-07   9.0584E-05  9.8227E-05   
1.00E+03  0.172  0.001   2.5234E-39  1.3760E-39   0.0000E+00  0.0000E+00   9.3616E-07  2.7840E-06   9.0329E-05  9.7850E-05   
1.00E+03  0.259  0.000   5.5349E-27  4.6349E-27   0.0000E+00  0.0000E+00   7.2035E-06  2.2722E-05   9.0194E-05  9.8291E-05   
1.00E+03  0.431  0.000   8.3466E-17  1.2133E-16   0.0000E+00  0.0000E+00   7.8295E-05  2.8354E-04   1.2634E-04  1.8996E-04   
1.00E+03  0.862  0.000   1.0001E-08  3.1132E-08   0.0000E+00  0.0000E+00   2.9572E-03  1.6842E-02   3.7884E-03  1.4663E-02   
1.00E+03  2.585  0.000   1.1576E-02  1.1857E-01   0.0000E+00  0.0000E+00   5.4168E-01  9.0980E+00   8.7196E-02  4.3707E-01   
1.00E+04  0.001  0.523   0.0000E+00  0.0000E+00   0.0000E+00  0.0000E+00   0.0000E+00  0.0000E+00   9.0453E-05  9.7984E-05   
1.00E+04  0.009  0.516   0.0000E+00  0.0000E+00   0.0000E+00  0.0000E+00   5.8548E-60  1.5815E-59   9.0507E-05  9.8080E-05   
1.00E+04  0.017  0.498   0.0000E+00  0.0000E+00   0.0000E+00  0.0000E+00   5.4622E-33  1.4828E-32   9.0538E-05  9.8135E-05   
1.00E+04  0.034  0.444   5.4436E-177 5.6926E-178  0.0000E+00  0.0000E+00   5.4575E-19  1.4959E-18   9.0566E-05  9.8186E-05   
1.00E+04  0.060  0.337   7.7291E-104 1.4262E-104  0.0000E+00  0.0000E+00   1.4465E-12  4.0229E-12   9.0586E-05  9.8223E-05   
1.00E+04  0.086  0.209   1.6854E-74  4.4788E-75   0.0000E+00  0.0000E+00   9.0803E-10  2.5630E-09   9.0597E-05  9.8244E-05   
1.00E+04  0.129  0.047   2.5006E-51  1.0099E-51   0.0000E+00  0.0000E+00   1.2474E-07  3.6113E-07   9.0547E-05  9.8169E-05   
1.00E+04  0.172  0.014   2.7139E-39  1.4799E-39   0.0000E+00  0.0000E+00   8.7107E-07  2.5904E-06   9.0302E-05  9.7808E-05   
1.00E+04  0.259  0.004   5.6037E-27  4.6925E-27   0.0000E+00  0.0000E+00   7.1170E-06  2.2449E-05   9.0174E-05  9.8263E-05   
1.00E+04  0.431  0.001   8.3626E-17  1.2156E-16   0.0000E+00  0.0000E+00   7.8149E-05  2.8301E-04   1.2633E-04  1.8994E-04   
1.00E+04  0.862  0.000   1.0003E-08  3.1138E-08   0.0000E+00  0.0000E+00   2.9566E-03  1.6839E-02   3.7884E-03  1.4663E-02   
1.00E+04  2.585  0.000   1.1576E-02  1.1857E-01   0.0000E+00  0.0000E+00   5.4167E-01  9.0980E+00   8.7195E-02  4.3707E-01   
1.00E+05  0.001  0.565   0.0000E+00  0.0000E+00   0.0000E+00  0.0000E+00   0.0000E+00  0.0000E+00   8.9436E-05  9.6247E-05   
1.00E+05  0.009  0.563   0.0000E+00  0.0000E+00   0.0000E+00  0.0000E+00   2.5731E-62  6.9505E-62   8.9472E-05  9.6311E-05   
1.00E+05  0.017  0.558   0.0000E+00  0.0000E+00   0.0000E+00  0.0000E+00   1.7002E-34  4.6155E-34   8.9522E-05  9.6404E-05   
1.00E+05  0.034  0.537   8.0651E-176 8.4341E-177  0.0000E+00  0.0000E+00   3.6836E-20  1.0097E-19   8.9639E-05  9.6621E-05   
1.00E+05  0.060  0.485   9.0039E-103 1.6614E-103  0.0000E+00  0.0000E+00   1.2417E-13  3.4533E-13   8.9777E-05  9.6879E-05   
1.00E+05  0.086  0.413   1.8114E-73  4.8137E-74   0.0000E+00  0.0000E+00   8.4490E-11  2.3848E-10   8.9876E-05  9.7069E-05   
1.00E+05  0.129  0.265   1.3538E-50  5.4677E-51   0.0000E+00  0.0000E+00   2.3096E-08  6.6860E-08   8.9988E-05  9.7287E-05   
1.00E+05  0.172  0.128   5.2727E-39  2.8751E-39   0.0000E+00  0.0000E+00   4.5047E-07  1.3393E-06   8.9941E-05  9.7256E-05   
1.00E+05  0.259  0.035   6.3385E-27  5.3078E-27   0.0000E+00  0.0000E+00   6.3082E-06  1.9894E-05   8.9969E-05  9.7965E-05   
1.00E+05  0.431  0.009   8.5245E-17  1.2392E-16   0.0000E+00  0.0000E+00   7.6713E-05  2.7779E-04   1.2621E-04  1.8976E-04   
1.00E+05  0.862  0.002   1.0024E-08  3.1202E-08   0.0000E+00  0.0000E+00   2.9507E-03  1.6805E-02   3.7881E-03  1.4662E-02   
1.00E+05  2.585  0.000   1.1577E-02  1.1858E-01   0.0000E+00  0.0000E+00   5.4164E-01  9.0973E+00   8.7195E-02  4.3706E-01   
1.00E+06  0.001  0.726   0.0000E+00  0.0000E+00   0.0000E+00  0.0000E+00   0.0000E+00  0.0000E+00   8.2787E-05  8.5522E-05   
1.00E+06  0.009  0.725   0.0000E+00  0.0000E+00   0.0000E+00  0.0000E+00   1.7105E-70  4.6206E-70   8.2847E-05  8.5621E-05   
1.00E+06  0.017  0.724   0.0000E+00  0.0000E+00   0.0000E+00  0.0000E+00   1.1143E-38  3.0249E-38   8.2863E-05  8.5661E-05   
1.00E+06  0.034  0.718   1.5146E-173 1.5839E-174  0.0000E+00  0.0000E+00   1.9614E-22  5.3762E-22   8.2999E-05  8.5936E-05   
1.00E+06  0.060  0.700   3.1935E-101 5.8928E-102  0.0000E+00  0.0000E+00   3.5008E-15  9.7365E-15   8.3334E-05  8.6599E-05   
1.00E+06  0.086  0.672   3.6441E-72  9.6841E-73   0.0000E+00  0.0000E+00   4.1998E-12  1.1854E-11   8.3754E-05  8.7418E-05   
1.00E+06  0.129  0.604   1.8565E-49  7.4977E-50   0.0000E+00  0.0000E+00   1.6852E-09  4.8782E-09   8.4502E-05  8.8840E-05   
1.00E+06  0.172  0.512   4.8847E-38  2.6636E-38   0.0000E+00  0.0000E+00   4.8844E-08  1.4518E-07   8.5224E-05  9.0172E-05   
1.00E+06  0.259  0.299   1.7557E-26  1.4702E-26   0.0000E+00  0.0000E+00   2.3071E-06  7.2683E-06   8.7113E-05  9.3866E-05   
1.00E+06  0.431  0.091   1.0315E-16  1.4994E-16   0.0000E+00  0.0000E+00   6.3758E-05  2.3071E-04   1.2491E-04  1.8777E-04   
1.00E+06  0.862  0.020   1.0232E-08  3.1851E-08   0.0000E+00  0.0000E+00   2.8925E-03  1.6472E-02   3.7852E-03  1.4649E-02   
1.00E+06  2.585  0.002   1.1585E-02  1.1866E-01   0.0000E+00  0.0000E+00   5.4126E-01  9.0909E+00   8.7186E-02  4.3701E-01   
1.00E+07  0.001  1.223   0.0000E+00  0.0000E+00   0.0000E+00  0.0000E+00   0.0000E+00  0.0000E+00   4.7752E-05  3.9073E-05   
1.00E+07  0.009  1.222   0.0000E+00  0.0000E+00   0.0000E+00  0.0000E+00   1.4983E-95  4.0474E-95   4.7827E-05  3.9166E-05   
1.00E+07  0.017  1.222   0.0000E+00  0.0000E+00   0.0000E+00  0.0000E+00   3.2134E-51  8.7232E-51   4.7886E-05  3.9255E-05   
1.00E+07  0.034  1.219   3.1418E-167 3.2856E-168  0.0000E+00  0.0000E+00   9.4558E-29  2.5918E-28   4.8098E-05  3.9585E-05   
1.00E+07  0.060  1.212   1.5419E-97  2.8451E-98   0.0000E+00  0.0000E+00   7.2509E-19  2.0166E-18   4.8707E-05  4.0517E-05   
1.00E+07  0.086  1.200   1.6765E-69  4.4551E-70   0.0000E+00  0.0000E+00   9.1290E-15  2.5767E-14   4.9609E-05  4.1898E-05   
1.00E+07  0.129  1.173   1.5124E-47  6.1080E-48   0.0000E+00  0.0000E+00   2.0686E-11  5.9883E-11   5.1642E-05  4.5005E-05   
1.00E+07  0.172  1.133   1.7955E-36  9.7908E-37   0.0000E+00  0.0000E+00   1.3295E-09  3.9517E-09   5.4145E-05  4.8800E-05   
1.00E+07  0.259  1.021   2.8736E-25  2.4063E-25   0.0000E+00  0.0000E+00   1.4196E-07  4.4697E-07   6.0638E-05  5.8816E-05   
1.00E+07  0.431  0.698   4.2156E-16  6.1283E-16   0.0000E+00  0.0000E+00   1.5942E-05  5.7521E-05   1.0809E-04  1.6246E-04   
1.00E+07  0.862  0.196   1.2554E-08  3.9080E-08   0.0000E+00  0.0000E+00   2.3713E-03  1.3495E-02   3.7541E-03  1.4512E-02   
1.00E+07  2.585  0.021   1.1670E-02  1.1953E-01   0.0000E+00  0.0000E+00   5.3750E-01  9.0270E+00   8.7100E-02  4.3651E-01   
1.00E+08  0.001  2.447   0.0000E+00  0.0000E+00   0.0000E+00  0.0000E+00   0.0000E+00  0.0000E+00   0.0000E+00  0.0000E+00   
1.00E+08  0.009  2.447   0.0000E+00  0.0000E+00   0.0000E+00  0.0000E+00   2.9086E-157 7.8568E-157  5.1959E-110 5.8361E-110  
1.00E+08  0.017  2.446   3.0937E-298 1.6091E-299  0.0000E+00  0.0000E+00   4.4497E-82  1.2079E-81   8.1476E-57  9.1589E-57   
1.00E+08  0.034  2.445   8.6442E-152 9.0638E-153  0.0000E+00  0.0000E+00   3.3663E-44  9.2269E-44   3.2328E-30  3.6433E-30   
1.00E+08  0.060  2.442   1.0917E-88  2.0219E-89   0.0000E+00  0.0000E+00   1.0102E-27  2.8097E-27   8.1665E-19  9.2703E-19   
1.00E+08  0.086  2.437   2.8197E-63  7.5179E-64   0.0000E+00  0.0000E+00   5.3758E-21  1.5174E-20   1.8623E-07  4.6910E-08   
1.00E+08  0.129  2.424   2.4040E-43  9.7342E-44   0.0000E+00  0.0000E+00   1.2929E-15  3.7428E-15   5.9876E-07  2.1714E-07   
1.00E+08  0.172  2.406   2.8768E-33  1.5720E-33   0.0000E+00  0.0000E+00   8.2561E-13  2.4540E-12   1.3346E-06  6.2066E-07   
1.00E+08  0.259  2.355   4.9750E-23  4.1730E-23   0.0000E+00  0.0000E+00   8.1725E-10  2.5731E-09   4.2613E-06  2.9710E-06   
1.00E+08  0.431  2.192   1.3471E-14  1.9608E-14   0.0000E+00  0.0000E+00   5.0113E-07  1.8065E-06   3.5667E-05  6.1010E-05   
1.00E+08  0.862  1.493   5.6474E-08  1.7593E-07   0.0000E+00  0.0000E+00   5.3816E-04  3.0552E-03   3.3557E-03  1.2761E-02   
1.00E+08  2.585  0.209   1.2547E-02  1.2853E-01   0.0000E+00  0.0000E+00   5.0124E-01  8.4115E+00   8.6215E-02  4.3141E-01   
1.00E+09  0.001  5.181   0.0000E+00  0.0000E+00   0.0000E+00  0.0000E+00   0.0000E+00  0.0000E+00   0.0000E+00  0.0000E+00   
1.00E+09  0.009  5.180   0.0000E+00  0.0000E+00   0.0000E+00  0.0000E+00   4.8708E-295 1.3157E-294  5.0907E-193 3.4665E-193  
1.00E+09  0.017  5.180   1.9188E-229 1.0162E-230  0.0000E+00  0.0000E+00   5.7280E-151 1.5549E-150  1.4248E-98  9.7289E-99   
1.00E+09  0.034  5.180   2.0042E-117 2.1303E-118  0.0000E+00  0.0000E+00   1.1841E-78  3.2457E-78   2.4031E-51  1.6573E-51   
1.00E+09  0.060  5.178   4.5079E-69  8.4368E-70   0.0000E+00  0.0000E+00   2.0118E-47  5.5952E-47   4.3558E-31  3.1230E-31   
1.00E+09  0.086  5.176   1.4869E-49  4.0113E-50   0.0000E+00  0.0000E+00   8.4291E-35  2.3792E-34   5.9020E-23  4.5087E-23   
1.00E+09  0.129  5.170   3.3826E-34  1.3884E-34   0.0000E+00  0.0000E+00   7.6820E-25  2.2238E-24   1.4465E-16  1.2913E-16   
1.00E+09  0.172  5.161   2.1335E-26  1.1822E-26   0.0000E+00  0.0000E+00   9.3981E-20  2.7934E-19   2.9851E-13  3.4343E-13   
1.00E+09  0.259  5.138   2.0236E-18  1.7270E-18   0.0000E+00  0.0000E+00   1.7265E-14  5.4360E-14   1.2577E-09  2.1102E-09   
1.00E+09  0.431  5.062   9.4246E-12  1.4069E-11   0.0000E+00  0.0000E+00   6.4125E-10  2.3115E-09   2.2053E-06  4.8430E-06   
1.00E+09  0.862  4.708   2.2598E-06  7.1589E-06   0.0000E+00  0.0000E+00   1.2995E-05  7.3719E-05   1.4063E-03  4.7177E-03   
1.00E+09  2.585  1.972   2.4751E-02  2.5390E-01   0.0000E+00  0.0000E+00   2.5850E-01  4.3139E+00   7.6022E-02  3.7356E-01   
1.00E+10  0.001  11.119  0.0000E+00  0.0000E+00   0.0000E+00  0.0000E+00   0.0000E+00  0.0000E+00   0.0000E+00  0.0000E+00   
1.00E+10  0.009  11.118  1.1731E-154 3.0371E-156  0.0000E+00  0.0000E+00   0.0000E+00  0.0000E+00   0.0000E+00  0.0000E+00   
1.00E+10  0.017  11.118  4.0126E-81  2.0807E-82   0.0000E+00  0.0000E+00   1.3475E-300 3.6579E-300  2.1233E-216 2.4245E-217  
1.00E+10  0.034  11.118  6.8627E-44  7.1374E-45   0.0000E+00  0.0000E+00   1.7999E-153 4.9334E-153  4.7605E-112 7.1561E-113  
1.00E+10  0.060  11.117  1.3610E-27  2.4911E-28   0.0000E+00  0.0000E+00   3.5020E-90  9.7398E-90   4.4211E-67  1.1317E-67   
1.00E+10  0.086  11.116  6.8346E-21  1.8445E-21   0.0000E+00  0.0000E+00   9.7224E-65  2.7442E-64   1.5898E-48  9.1928E-49   
1.00E+10  0.129  11.113  1.9378E-15  9.0882E-16   0.0000E+00  0.0000E+00   8.2439E-45  2.3865E-44   2.7749E-33  2.4350E-33   
1.00E+10  0.172  11.109  1.6903E-12  1.1564E-12   0.0000E+00  0.0000E+00   9.6569E-35  2.8703E-34   1.8768E-25  1.9037E-25   
1.00E+10  0.259  11.098  2.6504E-09  2.7192E-09   0.0000E+00  0.0000E+00   1.6738E-24  5.2700E-24   1.7517E-17  2.1639E-17   
1.00E+10  0.431  11.063  2.0145E-06  3.4221E-06   0.0000E+00  0.0000E+00   5.7280E-16  2.0648E-15   6.7109E-11  1.1273E-10   
1.00E+10  0.862  10.898  1.2585E-03  4.7599E-03   0.0000E+00  0.0000E+00   9.8620E-09  5.5943E-08   1.0326E-05  2.7740E-05   
1.00E+10  2.585  9.163   3.7692E-01  3.9692E+00   0.0000E+00  0.0000E+00   1.6368E-02  2.7146E-01   1.7238E-02  7.9291E-02   
1.00E+11  0.001  23.934  4.9886E+00  2.9426E+01   0.0000E+00  0.0000E+00   0.0000E+00  0.0000E+00   0.0000E+00  0.0000E+00   
1.00E+11  0.009  23.934  4.9878E+00  2.9421E+01   0.0000E+00  0.0000E+00   0.0000E+00  0.0000E+00   0.0000E+00  0.0000E+00   
1.00E+11  0.017  23.933  4.9872E+00  2.9417E+01   0.0000E+00  0.0000E+00   0.0000E+00  0.0000E+00   0.0000E+00  0.0000E+00   
1.00E+11  0.034  23.934  4.9889E+00  2.9433E+01   0.0000E+00  0.0000E+00   8.7345E-316 2.3568E-315  0.0000E+00  0.0000E+00   
1.00E+11  0.060  23.933  4.9914E+00  2.9460E+01   0.0000E+00  0.0000E+00   1.8754E-182 5.2160E-182  0.0000E+00  0.0000E+00   
1.00E+11  0.086  23.933  4.9955E+00  2.9505E+01   0.0000E+00  0.0000E+00   2.4825E-129 7.0071E-129  0.0000E+00  0.0000E+00   
1.00E+11  0.129  23.931  5.0055E+00  2.9613E+01   0.0000E+00  0.0000E+00   7.0675E-88  2.0459E-87   0.0000E+00  0.0000E+00   
1.00E+11  0.172  23.930  5.0195E+00  2.9766E+01   0.0000E+00  0.0000E+00   4.7806E-67  1.4210E-66   0.0000E+00  0.0000E+00   
1.00E+11  0.259  23.924  5.0664E+00  3.0258E+01   0.0000E+00  0.0000E+00   4.7523E-46  1.4963E-45   0.0000E+00  0.0000E+00   
1.00E+11  0.431  23.908  5.3864E+00  3.3276E+01   0.0000E+00  0.0000E+00   6.4702E-29  2.3323E-28   0.0000E+00  0.0000E+00   
1.00E+11  0.862  23.832  8.7804E+00  6.6887E+01   0.0000E+00  0.0000E+00   2.9915E-15  1.6969E-14   0.0000E+00  0.0000E+00   
1.00E+11  2.585  23.015  3.1148E+01  4.3686E+02   0.0000E+00  0.0000E+00   7.7184E-05  1.2795E-03   0.0000E+00  0.0000E+00   
