rhoYe is density times electron fraction [g/cm^3], T is temperature [MeV], mu_e is electron chemical potential [MeV]
e-(+) cap is electron (positron) capture, e-(+) dec is electron (positron) decay
For each process, first column is neutrino production [neutrinos/baryon second] and second column is energy loss [MeV/baryon second].
rhoYe     T      mu_e    e- cap                   e+ dec                   e+ cap                   e- dec                   
1.00E+01  0.001  0.509   0.0000E+00  0.0000E+00   0.0000E+00  0.0000E+00   0.0000E+00  0.0000E+00   1.2130E+00  6.9002E+00   
1.00E+01  0.009  0.453   0.0000E+00  0.0000E+00   0.0000E+00  0.0000E+00   6.7252E-55  7.0144E-54   1.2130E+00  6.9002E+00   
1.00E+01  0.017  0.377   0.0000E+00  0.0000E+00   0.0000E+00  0.0000E+00   4.9304E-28  5.1493E-27   1.2130E+00  6.9002E+00   
1.00E+01  0.034  0.205   0.0000E+00  0.0000E+00   0.0000E+00  0.0000E+00   4.4225E-14  4.6313E-13   1.2130E+00  6.9002E+00   
1.00E+01  0.060  0.008   0.0000E+00  0.0000E+00   0.0000E+00  0.0000E+00   2.5282E-08  2.6587E-07   1.2130E+00  6.9002E+00   
1.00E+01  0.086  0.000   0.0000E+00  0.0000E+00   0.0000E+00  0.0000E+00   7.3703E-07  7.7856E-06   1.2130E+00  6.9002E+00   
1.00E+01  0.129  0.000   0.0000E+00  0.0000E+00   0.0000E+00  0.0000E+00   1.2181E-05  1.2971E-04   1.2130E+00  6.9001E+00   
1.00E+01  0.172  0.000   0.0000E+00  0.0000E+00   0.0000E+00  0.0000E+00   5.9863E-05  6.4301E-04   1.2132E+00  6.9011E+00   
1.00E+01  0.259  0.000   0.0000E+00  0.0000E+00   0.0000E+00  0.0000E+00   3.9234E-04  4.2998E-03   1.2178E+00  6.9359E+00   
1.00E+01  0.431  0.000   0.0000E+00  0.0000E+00   0.0000E+00  0.0000E+00   2.9406E-03  3.4068E-02   1.2784E+00  7.4069E+00   
1.00E+01  0.862  0.000   0.0000E+00  0.0000E+00   0.0000E+00  0.0000E+00   3.4313E-02  4.8112E-01   1.7156E+00  1.1051E+01   
1.00E+01  2.585  0.000   0.0000E+00  0.0000E+00   0.0000E+00  0.0000E+00   1.3643E+00  3.2111E+01   2.3055E+00  1.6862E+01   
1.00E+01  0.001  0.509   0.0000E+00  0.0000E+00   0.0000E+00  0.0000E+00   0.0000E+00  0.0000E+00   1.2130E+00  6.9002E+00   
1.00E+01  0.009  0.453   0.0000E+00  0.0000E+00   0.0000E+00  0.0000E+00   6.7252E-55  7.0144E-54   1.2130E+00  6.9002E+00   
1.00E+01  0.017  0.377   0.0000E+00  0.0000E+00   0.0000E+00  0.0000E+00   4.9304E-28  5.1493E-27   1.2130E+00  6.9002E+00   
1.00E+01  0.034  0.205   0.0000E+00  0.0000E+00   0.0000E+00  0.0000E+00   4.4225E-14  4.6313E-13   1.2130E+00  6.9002E+00   
1.00E+01  0.060  0.008   0.0000E+00  0.0000E+00   0.0000E+00  0.0000E+00   2.5282E-08  2.6587E-07   1.2130E+00  6.9002E+00   
1.00E+01  0.086  0.000   0.0000E+00  0.0000E+00   0.0000E+00  0.0000E+00   7.3703E-07  7.7856E-06   1.2130E+00  6.9002E+00   
1.00E+01  0.129  0.000   0.0000E+00  0.0000E+00   0.0000E+00  0.0000E+00   1.2181E-05  1.2971E-04   1.2130E+00  6.9001E+00   
1.00E+01  0.172  0.000   0.0000E+00  0.0000E+00   0.0000E+00  0.0000E+00   5.9863E-05  6.4301E-04   1.2132E+00  6.9011E+00   
1.00E+01  0.259  0.000   0.0000E+00  0.0000E+00   0.0000E+00  0.0000E+00   3.9234E-04  4.2998E-03   1.2178E+00  6.9359E+00   
1.00E+01  0.431  0.000   0.0000E+00  0.0000E+00   0.0000E+00  0.0000E+00   2.9406E-03  3.4068E-02   1.2784E+00  7.4069E+00   
1.00E+01  0.862  0.000   0.0000E+00  0.0000E+00   0.0000E+00  0.0000E+00   3.4313E-02  4.8112E-01   1.7156E+00  1.1051E+01   
1.00E+01  2.585  0.000   0.0000E+00  0.0000E+00   0.0000E+00  0.0000E+00   1.3643E+00  3.2111E+01   2.3055E+00  1.6862E+01   
1.00E+02  0.001  0.511   0.0000E+00  0.0000E+00   0.0000E+00  0.0000E+00   0.0000E+00  0.0000E+00   1.2130E+00  6.9002E+00   
1.00E+02  0.009  0.473   0.0000E+00  0.0000E+00   0.0000E+00  0.0000E+00   6.6958E-56  6.9838E-55   1.2130E+00  6.9002E+00   
1.00E+02  0.017  0.416   0.0000E+00  0.0000E+00   0.0000E+00  0.0000E+00   4.9243E-29  5.1430E-28   1.2130E+00  6.9002E+00   
1.00E+02  0.034  0.284   0.0000E+00  0.0000E+00   0.0000E+00  0.0000E+00   4.4207E-15  4.6294E-14   1.2130E+00  6.9002E+00   
1.00E+02  0.060  0.065   0.0000E+00  0.0000E+00   0.0000E+00  0.0000E+00   9.7646E-09  1.0269E-07   1.2130E+00  6.9002E+00   
1.00E+02  0.086  0.005   0.0000E+00  0.0000E+00   0.0000E+00  0.0000E+00   7.0116E-07  7.4067E-06   1.2130E+00  6.9002E+00   
1.00E+02  0.129  0.000   0.0000E+00  0.0000E+00   0.0000E+00  0.0000E+00   1.2141E-05  1.2928E-04   1.2130E+00  6.9001E+00   
1.00E+02  0.172  0.000   0.0000E+00  0.0000E+00   0.0000E+00  0.0000E+00   5.9820E-05  6.4255E-04   1.2132E+00  6.9011E+00   
1.00E+02  0.259  0.000   0.0000E+00  0.0000E+00   0.0000E+00  0.0000E+00   3.9230E-04  4.2993E-03   1.2178E+00  6.9359E+00   
1.00E+02  0.431  0.000   0.0000E+00  0.0000E+00   0.0000E+00  0.0000E+00   2.9405E-03  3.4068E-02   1.2784E+00  7.4069E+00   
1.00E+02  0.862  0.000   0.0000E+00  0.0000E+00   0.0000E+00  0.0000E+00   3.4313E-02  4.8112E-01   1.7156E+00  1.1051E+01   
1.00E+02  2.585  0.000   0.0000E+00  0.0000E+00   0.0000E+00  0.0000E+00   1.3643E+00  3.2111E+01   2.3055E+00  1.6862E+01   
1.00E+01  0.001  0.509   0.0000E+00  0.0000E+00   0.0000E+00  0.0000E+00   0.0000E+00  0.0000E+00   1.2130E+00  6.9002E+00   
1.00E+01  0.009  0.453   0.0000E+00  0.0000E+00   0.0000E+00  0.0000E+00   6.7252E-55  7.0144E-54   1.2130E+00  6.9002E+00   
1.00E+01  0.017  0.377   0.0000E+00  0.0000E+00   0.0000E+00  0.0000E+00   4.9304E-28  5.1493E-27   1.2130E+00  6.9002E+00   
1.00E+01  0.034  0.205   0.0000E+00  0.0000E+00   0.0000E+00  0.0000E+00   4.4225E-14  4.6313E-13   1.2130E+00  6.9002E+00   
1.00E+01  0.060  0.008   0.0000E+00  0.0000E+00   0.0000E+00  0.0000E+00   2.5282E-08  2.6587E-07   1.2130E+00  6.9002E+00   
1.00E+01  0.086  0.000   0.0000E+00  0.0000E+00   0.0000E+00  0.0000E+00   7.3703E-07  7.7856E-06   1.2130E+00  6.9002E+00   
1.00E+01  0.129  0.000   0.0000E+00  0.0000E+00   0.0000E+00  0.0000E+00   1.2181E-05  1.2971E-04   1.2130E+00  6.9001E+00   
1.00E+01  0.172  0.000   0.0000E+00  0.0000E+00   0.0000E+00  0.0000E+00   5.9863E-05  6.4301E-04   1.2132E+00  6.9011E+00   
1.00E+01  0.259  0.000   0.0000E+00  0.0000E+00   0.0000E+00  0.0000E+00   3.9234E-04  4.2998E-03   1.2178E+00  6.9359E+00   
1.00E+01  0.431  0.000   0.0000E+00  0.0000E+00   0.0000E+00  0.0000E+00   2.9406E-03  3.4068E-02   1.2784E+00  7.4069E+00   
1.00E+01  0.862  0.000   0.0000E+00  0.0000E+00   0.0000E+00  0.0000E+00   3.4313E-02  4.8112E-01   1.7156E+00  1.1051E+01   
1.00E+01  2.585  0.000   0.0000E+00  0.0000E+00   0.0000E+00  0.0000E+00   1.3643E+00  3.2111E+01   2.3055E+00  1.6862E+01   
1.00E+02  0.001  0.511   0.0000E+00  0.0000E+00   0.0000E+00  0.0000E+00   0.0000E+00  0.0000E+00   1.2130E+00  6.9002E+00   
1.00E+02  0.009  0.473   0.0000E+00  0.0000E+00   0.0000E+00  0.0000E+00   6.6958E-56  6.9838E-55   1.2130E+00  6.9002E+00   
1.00E+02  0.017  0.416   0.0000E+00  0.0000E+00   0.0000E+00  0.0000E+00   4.9243E-29  5.1430E-28   1.2130E+00  6.9002E+00   
1.00E+02  0.034  0.284   0.0000E+00  0.0000E+00   0.0000E+00  0.0000E+00   4.4207E-15  4.6294E-14   1.2130E+00  6.9002E+00   
1.00E+02  0.060  0.065   0.0000E+00  0.0000E+00   0.0000E+00  0.0000E+00   9.7646E-09  1.0269E-07   1.2130E+00  6.9002E+00   
1.00E+02  0.086  0.005   0.0000E+00  0.0000E+00   0.0000E+00  0.0000E+00   7.0116E-07  7.4067E-06   1.2130E+00  6.9002E+00   
1.00E+02  0.129  0.000   0.0000E+00  0.0000E+00   0.0000E+00  0.0000E+00   1.2141E-05  1.2928E-04   1.2130E+00  6.9001E+00   
1.00E+02  0.172  0.000   0.0000E+00  0.0000E+00   0.0000E+00  0.0000E+00   5.9820E-05  6.4255E-04   1.2132E+00  6.9011E+00   
1.00E+02  0.259  0.000   0.0000E+00  0.0000E+00   0.0000E+00  0.0000E+00   3.9230E-04  4.2993E-03   1.2178E+00  6.9359E+00   
1.00E+02  0.431  0.000   0.0000E+00  0.0000E+00   0.0000E+00  0.0000E+00   2.9405E-03  3.4068E-02   1.2784E+00  7.4069E+00   
1.00E+02  0.862  0.000   0.0000E+00  0.0000E+00   0.0000E+00  0.0000E+00   3.4313E-02  4.8112E-01   1.7156E+00  1.1051E+01   
1.00E+02  2.585  0.000   0.0000E+00  0.0000E+00   0.0000E+00  0.0000E+00   1.3643E+00  3.2111E+01   2.3055E+00  1.6862E+01   
1.00E+03  0.001  0.513   0.0000E+00  0.0000E+00   0.0000E+00  0.0000E+00   0.0000E+00  0.0000E+00   1.2130E+00  6.9001E+00   
1.00E+03  0.009  0.493   0.0000E+00  0.0000E+00 1.00E+01  0.001  0.509   0.0000E+00  0.0000E+00   0.0000E+00  0.0000E+00   0.0000E+00  0.0000E+00   1.2130E+00  6.9002E+00   
1.00E+01  0.009  0.453   0.0000E+00  0.0000E+00   0.0000E+00  0.0000E+00   6.7252E-55  7.0144E-54   1.2130E+00  6.9002E+00   
1.00E+01  0.017  0.377   0.0000E+00  0.0000E+00   0.0000E+00  0.0000E+00   4.9304E-28  5.1493E-27   1.2130E+00  6.9002E+00   
1.00E+01  0.034  0.205   0.0000E+00  0.0000E+00   0.0000E+00  0.0000E+00   4.4225E-14  4.6313E-13   1.2130E+00  6.9002E+00   
1.00E+01  0.060  0.008   0.0000E+00  0.0000E+00   0.0000E+00  0.0000E+00   2.5282E-08  2.6587E-07   1.2130E+00  6.9002E+00   
1.00E+01  0.086  0.000   0.0000E+00  0.0000E+00   0.0000E+00  0.0000E+00   7.3703E-07  7.7856E-06   1.2130E+00  6.9002E+00   
1.00E+01  0.129  0.000   0.0000E+00  0.0000E+00   0.0000E+00  0.0000E+00   1.2181E-05  1.2971E-04   1.2130E+00  6.9001E+00   
1.00E+01  0.172  0.000   0.0000E+00  0.0000E+00   0.0000E+00  0.0000E+00   5.9863E-05  6.4301E-04   1.2132E+00  6.9011E+00   
1.00E+01  0.259  0.000   0.0000E+00  0.0000E+00   0.0000E+00  0.0000E+00   3.9234E-04  4.2998E-03   1.2178E+00  6.9359E+00   
1.00E+01  0.431  0.000   0.0000E+00  0.0000E+00   0.0000E+00  0.0000E+00   2.9406E-03  3.4068E-02   1.2784E+00  7.4069E+00   
1.00E+01  0.862  0.000   0.0000E+00  0.0000E+00   0.0000E+00  0.0000E+00   3.4313E-02  4.8112E-01   1.7156E+00  1.1051E+01   
1.00E+01  2.585  0.000   0.0000E+00  0.0000E+00   0.0000E+00  0.0000E+00   1.3643E+00  3.2111E+01   2.3055E+00  1.6862E+01   
1.00E+02  0.001  0.511   0.0000E+00  0.0000E+00   0.0000E+00  0.0000E+00   0.0000E+00  0.0000E+00   1.2130E+00  6.9002E+00   
1.00E+02  0.009  0.473   0.0000E+00  0.0000E+00   0.0000E+00  0.0000E+00   6.6958E-56  6.9838E-55   1.2130E+00  6.9002E+00   
1.00E+02  0.017  0.416   0.0000E+00  0.0000E+00   0.0000E+00  0.0000E+00   4.9243E-29  5.1430E-28   1.2130E+00  6.9002E+00   
1.00E+02  0.034  0.284   0.0000E+00  0.0000E+00   0.0000E+00  0.0000E+00   4.4207E-15  4.6294E-14   1.2130E+00  6.9002E+00   
1.00E+02  0.060  0.065   0.0000E+00  0.0000E+00   0.0000E+00  0.0000E+00   9.7646E-09  1.0269E-07   1.2130E+00  6.9002E+00   
1.00E+02  0.086  0.005   0.0000E+00  0.0000E+00   0.0000E+00  0.0000E+00   7.0116E-07  7.4067E-06   1.2130E+00  6.9002E+00   
1.00E+02  0.129  0.000   0.0000E+00  0.0000E+00   0.0000E+00  0.0000E+00   1.2141E-05  1.2928E-04   1.2130E+00  6.9001E+00   
1.00E+02  0.172  0.000   0.0000E+00  0.0000E+00   0.0000E+00  0.0000E+00   5.9820E-05  6.4255E-04   1.2132E+00  6.9011E+00   
1.00E+02  0.259  0.000   0.0000E+00  0.0000E+00   0.0000E+00  0.0000E+00   3.9230E-04  4.2993E-03   1.2178E+00  6.9359E+00   
1.00E+02  0.431  0.000   0.0000E+00  0.0000E+00   0.0000E+00  0.0000E+00   2.9405E-03  3.4068E-02   1.2784E+00  7.4069E+00   
1.00E+02  0.862  0.000   0.0000E+00  0.0000E+00   0.0000E+00  0.0000E+00   3.4313E-02  4.8112E-01   1.7156E+00  1.1051E+01   
1.00E+02  2.585  0.000   0.0000E+00  0.0000E+00   0.0000E+00  0.0000E+00   1.3643E+00  3.2111E+01   2.3055E+00  1.6862E+01   
1.00E+03  0.001  0.513   0.0000E+00  0.0000E+00   0.0000E+00  0.0000E+00   0.0000E+00  0.0000E+00   1.2130E+00  6.9001E+00   
1.00E+03  0.009  0.493   0.0000E+00  0.0000E+00   0.0000E+00  0.0000E+00   6.4078E-57  6.6834E-56   1.2130E+00  6.9002E+00   
1.00E+03  0.009  0.493   0.0000E+00  0.0000E+00 1.00E+01  0.001  0.509   0.0000E+00  0.0000E+00   0.0000E+00  0.0000E+00   0.0000E+00  0.0000E+00   1.2130E+00  6.9002E+00   
1.00E+03  0.017  0.456   0.0000E+00  0.0000E+00   0.0000E+00  0.0000E+00   4.8639E-30  5.0799E-29   1.2130E+00  6.9002E+00   
1.00E+03  0.034  0.364   0.0000E+00  0.0000E+00   0.0000E+00  0.0000E+00   4.4024E-16  4.6103E-15   1.2130E+00  6.9002E+00   
1.00E+03  0.060  0.197   0.0000E+00  0.0000E+00   0.0000E+00  0.0000E+00   1.1001E-09  1.1569E-08   1.2130E+00  6.9002E+00   
1.00E+03  0.086  0.046   0.0000E+00  0.0000E+00   0.0000E+00  0.0000E+00   4.3635E-07  4.6094E-06   1.2130E+00  6.9002E+00   
1.00E+03  0.129  0.005   0.0000E+00  0.0000E+00   0.0000E+00  0.0000E+00   1.1744E-05  1.2505E-04   1.2130E+00  6.9001E+00   
1.00E+03  0.172  0.001   0.0000E+00  0.0000E+00   0.0000E+00  0.0000E+00   5.9391E-05  6.3794E-04   1.2132E+00  6.9011E+00   
1.00E+03  0.259  0.000   0.0000E+00  0.0000E+00   0.0000E+00  0.0000E+00   3.9183E-04  4.2942E-03   1.2178E+00  6.9359E+00   
1.00E+03  0.431  0.000   0.0000E+00  0.0000E+00   0.0000E+00  0.0000E+00   2.9400E-03  3.4061E-02   1.2784E+00  7.4069E+00   
1.00E+03  0.862  0.000   0.0000E+00  0.0000E+00   0.0000E+00  0.0000E+00   3.4312E-02  4.8111E-01   1.7156E+00  1.1051E+01   
1.00E+03  2.585  0.000   0.0000E+00  0.0000E+00   0.0000E+00  0.0000E+00   1.3643E+00  3.2111E+01   2.3055E+00  1.6862E+01   
1.00E+04  0.001  0.523   0.0000E+00  0.0000E+00   0.0000E+00  0.0000E+00   0.0000E+00  0.0000E+00   1.2130E+00  6.8998E+00   
1.00E+04  0.009  0.516   0.0000E+00  0.0000E+00   0.0000E+00  0.0000E+00   4.6684E-58  4.8692E-57   1.2130E+00  6.8999E+00   
1.00E+04  0.017  0.498   0.0000E+00  0.0000E+00   0.0000E+00  0.0000E+00   4.3128E-31  4.5043E-30   1.2130E+00  6.9000E+00   
1.00E+04  0.034  0.444   0.0000E+00  0.0000E+00   0.0000E+00  0.0000E+00   4.2241E-17  4.4235E-16   1.2130E+00  6.9000E+00   
1.00E+04  0.060  0.337   0.0000E+00  0.0000E+00   0.0000E+00  0.0000E+00   1.0845E-10  1.1405E-09   1.2130E+00  6.9000E+00   
1.00E+04  0.086  0.209   0.0000E+00  0.0000E+00   0.0000E+00  0.0000E+00   6.5781E-08  6.9487E-07   1.2130E+00  6.9000E+00   
1.00E+04  0.129  0.047   0.0000E+00  0.0000E+00   0.0000E+00  0.0000E+00   8.4841E-06  9.0338E-05   1.2130E+00  6.9000E+00   
1.00E+04  0.172  0.014   0.0000E+00  0.0000E+00   0.0000E+00  0.0000E+00   5.5267E-05  5.9363E-04   1.2132E+00  6.9010E+00   
1.00E+04  0.259  0.004   0.0000E+00  0.0000E+00   0.0000E+00  0.0000E+00   3.8715E-04  4.2428E-03   1.2178E+00  6.9359E+00   
1.00E+04  0.431  0.001   0.0000E+00  0.0000E+00   0.0000E+00  0.0000E+00   2.9346E-03  3.3999E-02   1.2783E+00  7.4068E+00   
1.00E+04  0.862  0.000   0.0000E+00  0.0000E+00   0.0000E+00  0.0000E+00   3.4306E-02  4.8102E-01   1.7156E+00  1.1051E+01   
1.00E+04  2.585  0.000   0.0000E+00  0.0000E+00   0.0000E+00  0.0000E+00   1.3643E+00  3.2111E+01   2.3054E+00  1.6862E+01   
1.00E+05  0.001  0.565   0.0000E+00  0.0000E+00   0.0000E+00  0.0000E+00   0.0000E+00  0.0000E+00   1.2128E+00  6.8981E+00   
1.00E+05  0.009  0.563   0.0000E+00  0.0000E+00   0.0000E+00  0.0000E+00   2.0517E-60  2.1399E-59   1.2128E+00  6.8982E+00   
1.00E+05  0.017  0.558   0.0000E+00  0.0000E+00   0.0000E+00  0.0000E+00   1.3424E-32  1.4021E-31   1.2128E+00  6.8982E+00   
1.00E+05  0.034  0.537   0.0000E+00  0.0000E+00   0.0000E+00  0.0000E+00   2.8511E-18  2.9857E-17   1.2128E+00  6.8984E+00   
1.00E+05  0.060  0.485   0.0000E+00  0.0000E+00   0.0000E+00  0.0000E+00   9.3098E-12  9.7906E-11   1.2129E+00  6.8986E+00   
1.00E+05  0.086  0.413   0.0000E+00  0.0000E+00   0.0000E+00  0.0000E+00   6.1208E-09  6.4656E-08   1.2129E+00  6.8987E+00   
1.00E+05  0.129  0.265   0.0000E+00  0.0000E+00   0.0000E+00  0.0000E+00   1.5713E-06  1.6730E-05   1.2129E+00  6.8989E+00   
1.00E+05  0.172  0.128   0.0000E+00  0.0000E+00   0.0000E+00  0.0000E+00   2.8600E-05  3.0717E-04   1.2131E+00  6.9003E+00   
1.00E+05  0.259  0.035   0.0000E+00  0.0000E+00   0.0000E+00  0.0000E+00   3.4336E-04  3.7627E-03   1.2177E+00  6.9353E+00   
1.00E+05  0.431  0.009   0.0000E+00  0.0000E+00   0.0000E+00  0.0000E+00   2.8816E-03  3.3383E-02   1.2783E+00  7.4064E+00   
1.00E+05  0.862  0.002   0.0000E+00  0.0000E+00   0.0000E+00  0.0000E+00   3.4239E-02  4.8008E-01   1.7156E+00  1.1051E+01   
1.00E+05  2.585  0.000   0.0000E+00  0.0000E+00   0.0000E+00  0.0000E+00   1.3642E+00  3.2109E+01   2.3054E+00  1.6862E+01   
1.00E+06  0.001  0.726   0.0000E+00  0.0000E+00   0.0000E+00  0.0000E+00   0.0000E+00  0.0000E+00   1.2115E+00  6.8857E+00   
1.00E+06  0.009  0.725   0.0000E+00  0.0000E+00   0.0000E+00  0.0000E+00   1.3639E-68  1.4226E-67   1.2115E+00  6.8858E+00   
1.00E+06  0.017  0.724   0.0000E+00  0.0000E+00   0.0000E+00  0.0000E+00   8.7981E-37  9.1888E-36   1.2115E+00  6.8857E+00   
1.00E+06  0.034  0.718   0.0000E+00  0.0000E+00   0.0000E+00  0.0000E+00   1.5181E-20  1.5898E-19   1.2115E+00  6.8859E+00   
1.00E+06  0.060  0.700   0.0000E+00  0.0000E+00   0.0000E+00  0.0000E+00   2.6249E-13  2.7604E-12   1.2115E+00  6.8862E+00   
1.00E+06  0.086  0.672   0.0000E+00  0.0000E+00   0.0000E+00  0.0000E+00   3.0425E-10  3.2139E-09   1.2116E+00  6.8865E+00   
1.00E+06  0.129  0.604   0.0000E+00  0.0000E+00   0.0000E+00  0.0000E+00   1.1465E-07  1.2207E-06   1.2116E+00  6.8873E+00   
1.00E+06  0.172  0.512   0.0000E+00  0.0000E+00   0.0000E+00  0.0000E+00   3.1030E-06  3.3324E-05   1.2119E+00  6.8895E+00   
1.00E+06  0.259  0.299   0.0000E+00  0.0000E+00   0.0000E+00  0.0000E+00   1.2597E-04  1.3798E-03   1.2169E+00  6.9276E+00   
1.00E+06  0.431  0.091   0.0000E+00  0.0000E+00   0.0000E+00  0.0000E+00   2.4015E-03  2.7810E-02   1.2778E+00  7.4017E+00   
1.00E+06  0.862  0.020   0.0000E+00  0.0000E+00   0.0000E+00  0.0000E+00   3.3585E-02  4.7085E-01   1.7152E+00  1.1047E+01   
1.00E+06  2.585  0.002   0.0000E+00  0.0000E+00   0.0000E+00  0.0000E+00   1.3633E+00  3.2087E+01   2.3053E+00  1.6860E+01   
1.00E+07  0.001  1.223   0.0000E+00  0.0000E+00   0.0000E+00  0.0000E+00   0.0000E+00  0.0000E+00   1.2007E+00  6.7868E+00   
1.00E+07  0.009  1.222   0.0000E+00  0.0000E+00   0.0000E+00  0.0000E+00   1.1947E-93  1.2461E-92   1.2007E+00  6.7869E+00   
1.00E+07  0.017  1.222   0.0000E+00  0.0000E+00   0.0000E+00  0.0000E+00   2.5372E-49  2.6499E-48   1.2007E+00  6.7870E+00   
1.00E+07  0.034  1.219   0.0000E+00  0.0000E+00   0.0000E+00  0.0000E+00   7.3187E-27  7.6643E-26   1.2007E+00  6.7871E+00   
1.00E+07  0.060  1.212   0.0000E+00  0.0000E+00   0.0000E+00  0.0000E+00   5.4366E-17  5.7174E-16   1.2007E+00  6.7875E+00   
1.00E+07  0.086  1.200   0.0000E+00  0.0000E+00   0.0000E+00  0.0000E+00   6.6134E-13  6.9860E-12   1.2008E+00  6.7882E+00   
1.00E+07  0.129  1.173   0.0000E+00  0.0000E+00   0.0000E+00  0.0000E+00   1.4074E-09  1.4985E-08   1.2009E+00  6.7899E+00   
1.00E+07  0.172  1.133   0.0000E+00  0.0000E+00   0.0000E+00  0.0000E+00   8.4469E-08  9.0713E-07   1.2013E+00  6.7937E+00   
1.00E+07  0.259  1.021   0.0000E+00  0.0000E+00   0.0000E+00  0.0000E+00   7.7643E-06  8.5028E-05   1.2068E+00  6.8369E+00   
1.00E+07  0.431  0.698   0.0000E+00  0.0000E+00   0.0000E+00  0.0000E+00   6.0683E-04  7.0165E-03   1.2700E+00  7.3329E+00   
1.00E+07  0.862  0.196   0.0000E+00  0.0000E+00   0.0000E+00  0.0000E+00   2.7689E-02  3.8779E-01   1.7113E+00  1.1011E+01   
1.00E+07  2.585  0.021   0.0000E+00  0.0000E+00   0.0000E+00  0.0000E+00   1.3539E+00  3.1865E+01   2.3040E+00  1.6849E+01   
1.00E+08  0.001  2.447   0.0000E+00  0.0000E+00   0.0000E+00  0.0000E+00   0.0000E+00  0.0000E+00   1.1181E+00  6.0944E+00   
1.00E+08  0.009  2.447   0.0000E+00  0.0000E+00   0.0000E+00  0.0000E+00   2.3192E-155 2.4189E-154  1.1182E+00  6.0947E+00   
1.00E+08  0.017  2.446   0.0000E+00  0.0000E+00   0.0000E+00  0.0000E+00   3.5133E-80  3.6693E-79   1.1182E+00  6.0950E+00   
1.00E+08  0.034  2.445   0.0000E+00  0.0000E+00   0.0000E+00  0.0000E+00   2.6054E-42  2.7285E-41   1.1182E+00  6.0952E+00   
1.00E+08  0.060  2.442   0.0000E+00  0.0000E+00   0.0000E+00  0.0000E+00   7.5746E-26  7.9658E-25   1.1183E+00  6.0965E+00   
1.00E+08  0.086  2.437   0.0000E+00  0.0000E+00   0.0000E+00  0.0000E+00   3.8944E-19  4.1138E-18   1.1185E+00  6.0984E+00   
1.00E+08  0.129  2.424   0.0000E+00  0.0000E+00   0.0000E+00  0.0000E+00   8.7965E-14  9.3662E-13   1.1190E+00  6.1032E+00   
1.00E+08  0.172  2.406   0.0000E+00  0.0000E+00   0.0000E+00  0.0000E+00   5.2455E-11  5.6332E-10   1.1198E+00  6.1112E+00   
1.00E+08  0.259  2.355   0.0000E+00  0.0000E+00   0.0000E+00  0.0000E+00   4.4705E-08  4.8956E-07   1.1264E+00  6.1652E+00   
1.00E+08  0.431  2.192   0.0000E+00  0.0000E+00   0.0000E+00  0.0000E+00   1.9144E-05  2.2124E-04   1.1930E+00  6.6846E+00   
1.00E+08  0.862  1.493   0.0000E+00  0.0000E+00   0.0000E+00  0.0000E+00   6.4218E-03  8.9570E-02   1.6551E+00  1.0502E+01   
1.00E+08  2.585  0.209   0.0000E+00  0.0000E+00   0.0000E+00  0.0000E+00   1.2641E+00  2.9726E+01   2.2910E+00  1.6727E+01   
1.00E+09  0.001  5.181   0.0000E+00  0.0000E+00   0.0000E+00  0.0000E+00   0.0000E+00  0.0000E+00   6.8482E-01  3.0938E+00   
1.00E+09  0.009  5.180   0.0000E+00  0.0000E+00   0.0000E+00  0.0000E+00   3.8838E-293 4.0509E-292  6.8490E-01  3.0943E+00   
1.00E+09  0.017  5.180   0.0000E+00  0.0000E+00   0.0000E+00  0.0000E+00   4.5226E-149 4.7235E-148  6.8500E-01  3.0949E+00   
1.00E+09  0.034  5.180   0.0000E+00  0.0000E+00   0.0000E+00  0.0000E+00   9.1650E-77  9.5978E-76   6.8504E-01  3.0954E+00   
1.00E+09  0.060  5.178   0.0000E+00  0.0000E+00   0.0000E+00  0.0000E+00   1.5084E-45  1.5863E-44   6.8534E-01  3.0977E+00   
1.00E+09  0.086  5.176   0.0000E+00  0.0000E+00   0.0000E+00  0.0000E+00   6.1064E-33  6.4504E-32   6.8578E-01  3.1012E+00   
1.00E+09  0.129  5.170   0.0000E+00  0.0000E+00   0.0000E+00  0.0000E+00   5.2264E-23  5.5649E-22   6.8688E-01  3.1099E+00   
1.00E+09  0.172  5.161   0.0000E+00  0.0000E+00   0.0000E+00  0.0000E+00   5.9710E-18  6.4123E-17   6.8857E-01  3.1229E+00   
1.00E+09  0.259  5.138   0.0000E+00  0.0000E+00   0.0000E+00  0.0000E+00   9.4442E-13  1.0342E-11   6.9693E-01  3.1823E+00   
1.00E+09  0.431  5.062   0.0000E+00  0.0000E+00   0.0000E+00  0.0000E+00   2.4500E-08  2.8313E-07   7.6230E-01  3.6262E+00   
1.00E+09  0.862  4.708   0.0000E+00  0.0000E+00   0.0000E+00  0.0000E+00   1.5613E-04  2.1749E-03   1.2135E+00  6.9295E+00   
1.00E+09  2.585  1.972   0.0000E+00  0.0000E+00   0.0000E+00  0.0000E+00   6.5752E-01  1.5370E+01   2.1337E+00  1.5283E+01   
1.00E+10  0.001  11.119  0.0000E+00  0.0000E+00   0.0000E+00  0.0000E+00   0.0000E+00  0.0000E+00   1.2740E-02  1.6009E-02   
1.00E+10  0.009  11.118  0.0000E+00  0.0000E+00   0.0000E+00  0.0000E+00   0.0000E+00  0.0000E+00   1.2762E-02  1.6049E-02   
1.00E+10  0.017  11.118  0.0000E+00  0.0000E+00   0.0000E+00  0.0000E+00   1.0639E-298 1.1112E-297  1.2779E-02  1.6086E-02   
1.00E+10  0.034  11.118  0.0000E+00  0.0000E+00   0.0000E+00  0.0000E+00   1.3931E-151 1.4589E-150  1.2809E-02  1.6167E-02   
1.00E+10  0.060  11.117  0.0000E+00  0.0000E+00   0.0000E+00  0.0000E+00   2.6258E-88  2.7614E-87   1.2908E-02  1.6421E-02   
1.00E+10  0.086  11.116  0.0000E+00  0.0000E+00   0.0000E+00  0.0000E+00   7.0433E-63  7.4401E-62   1.3061E-02  1.6812E-02   
1.00E+10  0.129  11.113  0.0000E+00  0.0000E+00   0.0000E+00  0.0000E+00   5.6088E-43  5.9720E-42   1.3434E-02  1.7779E-02   
1.00E+10  0.172  11.109  0.0000E+00  0.0000E+00   0.0000E+00  0.0000E+00   6.1354E-33  6.5889E-32   1.3974E-02  1.9194E-02   
1.00E+10  0.259  11.098  0.0000E+00  0.0000E+00   0.0000E+00  0.0000E+00   9.1559E-23  1.0027E-21   1.5958E-02  2.4483E-02   
1.00E+10  0.431  11.063  0.0000E+00  0.0000E+00   0.0000E+00  0.0000E+00   2.1885E-14  2.5291E-13   2.8611E-02  6.1767E-02   
1.00E+10  0.862  10.898  0.0000E+00  0.0000E+00   0.0000E+00  0.0000E+00   1.1851E-07  1.6507E-06   1.5194E-01  5.5634E-01   
1.00E+10  2.585  9.163   0.0000E+00  0.0000E+00   0.0000E+00  0.0000E+00   4.2039E-02  9.7606E-01   9.4141E-01  5.7498E+00   
1.00E+11  0.001  23.934  0.0000E+00  0.0000E+00   0.0000E+00  0.0000E+00   0.0000E+00  0.0000E+00   0.0000E+00  0.0000E+00   
1.00E+11  0.009  23.934  0.0000E+00  0.0000E+00   0.0000E+00  0.0000E+00   0.0000E+00  0.0000E+00   0.0000E+00  0.0000E+00   
1.00E+11  0.017  23.933  0.0000E+00  0.0000E+00   0.0000E+00  0.0000E+00   0.0000E+00  0.0000E+00   1.0462E-299 4.3979E-300  
1.00E+11  0.034  23.934  0.0000E+00  0.0000E+00   0.0000E+00  0.0000E+00   6.9800E-314 7.2780E-313  1.0614E-152 4.6110E-153  
1.00E+11  0.060  23.933  0.0000E+00  0.0000E+00   0.0000E+00  0.0000E+00   1.4062E-180 1.4788E-179  1.3324E-89  6.4358E-90   
1.00E+11  0.086  23.933  0.0000E+00  0.0000E+00   0.0000E+00  0.0000E+00   1.7984E-127 1.8997E-126  2.9784E-64  1.6335E-64   
1.00E+11  0.129  23.931  0.0000E+00  0.0000E+00   0.0000E+00  0.0000E+00   4.8083E-86  5.1197E-85   2.2186E-44  1.4937E-44   
1.00E+11  0.172  23.930  0.0000E+00  0.0000E+00   0.0000E+00  0.0000E+00   3.0373E-65  3.2618E-64   2.5818E-34  2.0786E-34   
1.00E+11  0.259  23.924  0.0000E+00  0.0000E+00   0.0000E+00  0.0000E+00   2.5996E-44  2.8468E-43   4.6603E-24  4.9451E-24   
1.00E+11  0.431  23.908  0.0000E+00  0.0000E+00   0.0000E+00  0.0000E+00   2.4721E-27  2.8568E-26   1.4097E-15  2.1431E-15   
1.00E+11  0.862  23.832  0.0000E+00  0.0000E+00   0.0000E+00  0.0000E+00   3.5947E-14  5.0072E-13   4.0382E-09  1.0850E-08   
1.00E+11  2.585  23.015  0.0000E+00  0.0000E+00   0.0000E+00  0.0000E+00   1.9838E-04  4.6037E-03   1.0894E-04  6.8657E-04   
